=~=~=~=~=~=~=~=~=~=~=~= PuTTY log 2025.04.16 15:18:44 =~=~=~=~=~=~=~=~=~=~=~=




Speed (Hz)
60.280
60.4318
60.9727
61.954
60.9775
60.8711
60.8270
60.8240
60.8241
60.7798
60.7209
60.6831
60.6939
60.6974
60.5943
60.4863
60.4841
60.5315
60.5465
60.5041
60.4362
60.3866
60.3571
60.3580
60.3572
60.2743
60.1652
60.1203
60.1371
60.1621
60.1432
60.721
60.203
60.2
60.78
60.62
59.9110
59.7815
59.7316
59.7565
59.7872
59.8153
59.7970
59.7472
59.7082
59.7034
59.7426
59.7284
59.6310
59.5892
59.6454
59.7196
59.7472
59.7057
59.6690
59.6646
59.6911
59.7302
59.7455
59.6921
59.6534
59.6839
59.7559
59.8326
59.8428
59.8250
59.8348
59.8840
59.9360
59.9410
59.8658
59.8298
59.8821
59.9490
60.78
60.483
60.456
60.282
60.421
60.945
60.1244
60.414
59.9786
60.201
60.890
60.1189
60.970
60.500
60.246
60.204
60.514
60.713
59.9982
59.9231
59.9106
59.9539
59.9916
59.9758
59.9243
59.8982
59.8983
59.9187
59.9079
59.8019
59.6915
59.6736
59.7144
59.7542
59.7667
59.7348
59.6962
59.6643
59.6763
59.7170
59.6757
59.5825
59.5687
59.6421
59.7080
59.7225
59.6845
59.6630
59.6788
59.7111
59.7543
59.7588
59.6952
59.6701
59.7187
59.7965
59.8665
59.8631
59.8415
59.8576
59.9069
59.9521
59.9317
59.8508
59.8343
59.8868
59.9494
60.151
60.450
60.332
60.185
60.395
60.1059
60.1145
60.247
59.9828
60.447
60.1102
60.1316
60.946
60.524
60.352
60.357
60.655
60.764
59.9992
59.9251
59.9235
59.9670
59.9980
59.9730
59.9209
59.8950
59.9011
59.9266
59.9132
59.7998
59.7039
59.7040
59.7496
59.7900
59.8068
59.7874
59.7487
59.7273
59.7523
59.7895
59.7319
59.6514
59.6622
59.7451
59.8037
59.8014
59.7610
59.7454
59.7591
59.8035
59.8536
59.8397
59.7855
59.7828
59.8399
59.9238
59.9856
59.9775
59.9724
60.41
60.668
60.1144
60.724
60.78
60.149
60.804
60.1462
60.2027
60.2144
60.2082
60.2052
60.2379
60.2938
60.2621
60.1734
60.1642
60.2360
60.3005
60.3135
60.2696
60.2369
60.2204
60.2316
60.2650
60.2436
60.1520
60.996
60.1219
60.1608
60.1825
60.1421
60.945
60.834
60.979
60.1130
60.544
59.9252
59.8568
59.8750
59.9203
59.9572
59.9432
59.9001
59.8570
59.8479
59.8926
59.9092
59.8250
59.7647
59.8072
59.8864
59.9280
59.8987
59.8663
59.8662
59.8858
59.9272
59.9582
59.9170
59.8704
59.8846
59.9506
60.297
60.572
60.339
60.334
60.748
60.1285
60.1446
60.694
60.216
60.537
60.1248
60.1914
60.2337
60.2300
60.2178
60.2257
60.2755
60.3106
60.2382
60.1684
60.2024
60.2794
60.3153
60.2916
60.2361
60.2048
60.1943
60.2148
60.2411
60.1750
60.867
60.665
60.991
60.1356
60.1262
60.650
60.276
60.266
60.426
60.394
59.9433
59.8316
59.8101
59.8471
59.8830
59.9010
59.8769
59.8369
59.7980
59.8047
59.8484
59.8169
59.7203
59.6935
59.7564
59.8158
59.8314
59.7921
59.7683
59.7754
59.8037
59.8507
59.8601
59.7958
59.7698
59.8134
59.8915
59.9592
59.9605
59.9442
59.9589
60.81
60.579
60.360
59.9546
59.9365
59.9872
60.516
60.1114
60.1357
60.1299
60.1170
60.1308
60.1878
60.1951
60.1049
60.664
60.1279
60.1979
60.2264
60.1897
60.1521
60.1414
60.1449
60.1737
60.1791
60.993
60.263
60.277
60.664
60.937
60.719
60.202
59.9922
60.18
60.207
59.9930
59.8675
59.7786
59.7893
59.8346
59.8693
59.8781
59.8486
59.8168
59.7990
59.8265
59.8652
59.7993
59.7127
59.7312
59.8160
59.8744
59.8709
59.8276
59.8157
59.8288
59.8647
59.9091
59.8906
59.8351
59.8270
59.8858
59.9666
60.226
60.121
60.70
60.374
60.968
60.1458
60.954
60.303
60.428
60.1134
60.1810
60.2408
60.2501
60.2317
60.2310
60.2700
60.3210
60.2835
60.1945
60.1927
60.2646
60.3158
60.3172
60.2678
60.2311
60.2193
60.2343
60.2686
60.2417
60.1517
60.1042
60.1299
60.1753
60.1928
60.1480
60.1065
60.967
60.1125
60.1200
60.540
59.9202
59.8615
59.8923
59.9348
59.9712
59.9566
59.9201
59.8850
59.8798
59.9135
59.9043
59.8105
59.7559
59.8086
59.8792
59.9162
59.8895
59.8614
59.8635
59.8870
59.9233
59.9423
59.8979
59.8525
59.8708
59.9468
60.292
60.513
60.201
60.171
60.566
60.1131
60.1161
60.318
59.9887
60.228
60.853
60.1526
60.1953
60.1882
60.1581
60.1643
60.2231
60.2622
60.1873
60.1221
60.1558
60.2279
60.2630
60.2466
60.2060
60.1836
60.1788
60.1942
60.2146
60.1497
60.600
60.333
60.689
60.1044
60.945
60.381
60.10
59.9944
60.116
60.71
59.9113
59.8054
59.7810
59.8192
59.8587
59.8786
59.8594
59.8262
59.7945
59.8043
59.8497
59.8167
59.7188
59.6958
59.7660
59.8295
59.8460
59.8012
59.7802
59.7910
59.8218
59.8622
59.8678
59.8095
59.7839
59.8338
59.9142
59.9879
59.9947
59.9768
59.9973
60.502
60.1016
60.767
59.9955
59.9839
60.400
60.1080
60.1750
60.1967
60.1857
60.1696
60.1898
60.2514
60.2540
60.1642
60.1264
60.1857
60.2557
60.2755
60.2370
60.1993
60.1859
60.1960
60.2242
60.2190
60.1346
60.707
60.807
60.1229
60.1545
60.1278
60.750
60.535
60.560
60.735
60.474
59.9214
59.8270
59.8309
59.8711
59.9092
59.9182
59.8847
59.8487
59.8309
59.8646
59.8917
59.8197
59.7386
59.7594
59.8419
59.8923
59.8814
59.8437
59.8370
59.8526
59.8901
59.9353
59.9072
59.8503
59.8496
59.9153
59.9941
60.335
60.148
60.81
60.450
60.1022
60.1355
60.704
60.34
60.279
60.918
60.1507
60.2036
60.2108
60.2046
60.2046
60.2437
60.2940
60.2489
60.1680
60.1751
60.2429
60.2856
60.2807
60.2267
60.1935
60.1761
60.1888
60.2217
60.1857
60.971
60.530
60.736
60.1109
60.1279
60.833
60.421
60.323
60.407
60.508
59.9804
59.8536
59.7952
59.8253
59.8666
59.9003
59.8884
59.8592
59.8228
59.8191
59.8585
59.8550
59.7576
59.7033
59.7539
59.8280
59.8572
59.8143
59.7800
59.7798
59.8010
59.8437
59.8770
59.8328
59.7884
59.8131
59.8876
59.9681
59.9889
59.9699
59.9736
60.136
60.662
60.758
59.9897
59.9413
59.9778
60.450
60.1071
60.1443
60.1406
60.1204
60.1227
60.1729
60.2041
60.1300
60.669
60.1025
60.1753
60.2127
60.1937
60.1463
60.1183
60.1112
60.1411
60.1683
60.1048
60.167
59.9998
60.418
60.823
60.781
60.197
59.9810
59.9744
59.9908
59.9872
59.8897
59.7758
59.7498
59.7869
59.8251
59.8530
59.8340
59.7985
59.7753
59.7904
59.8354
59.8050
59.7120
59.6975
59.7664
59.8298
59.8468
59.8087
59.7949
59.8076
59.8382
59.8821
59.8859
59.8332
59.8248
59.8790
59.9552
60.253
60.286
60.162
60.350
60.891
60.1463
60.1280
60.538
60.462
60.1063
60.1734
60.2432
60.2694
60.2634
60.2548
60.2889
60.3509
60.3457
60.2544
60.2273
60.2856
60.3437
60.3662
60.3259
60.2853
60.2665
60.2697
60.3018
60.3063
60.2315
60.1678
60.1776
60.2254
60.2548
60.2208
60.1713
60.1518
60.1596
60.1737
60.1318
60.48
59.9285
59.9407
59.9890
60.291
60.306
59.9949
59.9569
59.9390
59.9726
59.9919
59.9124
59.8411
59.8700
59.9426
59.9846
59.9602
59.9212
59.9200
59.9408
59.9854
60.297
59.9931
59.9387
59.9504
60.168
60.936
60.1265
60.1109
60.1050
60.1402
60.1921
60.2111
60.1402
60.790
60.1039
60.1687
60.2264
60.2734
60.2723
60.2565
60.2606
60.3068
60.3563
60.2881
60.2082
60.2182
60.2905
60.3363
60.3255
60.2756
60.2410
60.2237
60.2373
60.2642
60.2125
60.1183
60.839
60.1153
60.1427
60.1409
60.818
60.371
60.235
60.303
60.304
59.9409
59.8211
59.7754
59.8075
59.8551
59.8924
59.8704
59.8254
59.7920
59.7946
59.8357
59.8145
59.7095
59.6660
59.7237
59.7915
59.8148
59.7773
59.7463
59.7462
59.7712
59.8128
59.8344
59.7799
59.7403
59.7709
59.8443
59.9211
59.9285
59.9044
59.9109
59.9612
60.158
60.187
59.9460
59.9134
59.9533
60.201
60.876
60.1210
60.1100
60.908
60.1030
60.1627
60.1815
60.950
60.361
60.799
60.1498
60.1779
60.1484
60.1100
60.899
60.890
60.1184
60.1355
60.672
59.9877
59.9760
60.198
60.601
60.442
59.9889
59.9549
59.9612
59.9870
59.9800
59.8656
59.7558
59.7385
59.7854
59.8233
59.8417
59.8113
59.7686
59.7426
59.7672
59.8155
59.7671
59.6826
59.6844
59.7600
59.8168
59.8275
59.7972
59.7875
59.8001
59.8368
59.8850
59.8771
59.8144
59.7950
59.8454
59.9261
59.9983
59.9927
59.9726
59.9969
60.474
60.924
60.637
59.9863
59.9830
60.472
60.1127
60.1722
60.1896
60.1807
60.1741
60.2061
60.2688
60.2556
60.1662
60.1393
60.2025
60.2687
60.2790
60.2353
60.1978
60.1787
60.1814
60.2135
60.2045
60.1145
60.522
60.638
60.1073
60.1352
60.971
60.465
60.290
60.395
60.553
60.89
59.8844
59.8150
59.8329
59.8768
59.9137
59.9166
59.8868
59.8477
59.8309
59.8615
59.8848
59.8010
59.7215
59.7429
59.8249
59.8734
59.8610
59.8156
59.8024
59.8187
59.8599
59.9022
59.8681
59.8151
59.8240
59.8930
59.9743
60.197
60.13
59.9956
60.298
60.788
60.1102
60.483
59.9859
60.9
60.624
60.1191
60.1688
60.1770
60.1599
60.1583
60.2013
60.2486
60.1920
60.1051
60.1186
60.1976
60.2447
60.2347
60.1878
60.1589
60.1455
60.1617
60.1974
60.1559
60.660
60.320
60.555
60.942
60.1081
60.617
60.196
60.86
60.194
60.222
59.9438
59.8172
59.7697
59.7977
59.8377
59.8722
59.8634
59.8282
59.7908
59.7945
59.8391
59.8369
59.7450
59.7067
59.7623
59.8294
59.8592
59.8270
59.7979
59.7947
59.8195
59.8682
59.8924
59.8391
59.7977
59.8270
59.8999
59.9779
59.9910
59.9741
59.9859
60.343
60.911
60.929
60.133
59.9823
60.262
60.942
60.1623
60.2058
60.2010
60.1807
60.1948
60.2564
60.2824
60.1941
60.1353
60.1797
60.2504
60.2738
60.2487
60.2000
60.1722
60.1687
60.1961
60.2130
60.1387
60.591
60.551
60.955
60.1324
60.1183
60.659
60.321
60.282
60.466
60.478
59.9449
59.8385
59.8205
59.8555
59.8887
59.9110
59.8878
59.8489
59.8171
59.8332
59.8720
59.8205
59.7263
59.7176
59.7943
59.8538
59.8582
59.8139
59.8002
59.8099
59.8448
59.8947
59.8956
59.8381
59.8179
59.8670
59.9523
60.235
60.119
59.9913
60.173
60.735
60.1192
60.894
60.128
60.42
60.605
60.1192
60.1866
60.2070
60.1910
60.1771
60.2046
60.2675
60.2551
60.1647
60.1396
60.2056
60.2704
60.2896
60.2503
60.2106
60.1968
60.2002
60.2291
60.2183
60.1299
60.678
60.780
60.1138
60.1363
60.978
60.456
60.262
60.327
60.427
60.91
59.8901
59.8155
59.8301
59.8735
59.9065
59.9102
59.8779
59.8408
59.8230
59.8505
59.8744
59.7837
59.7076
59.7374
59.8166
59.8646
59.8496
59.8046
59.7963
59.8117
59.8467
59.8827
59.8445
59.7816
59.7912
59.8556
59.9365
59.9777
59.9546
59.9471
59.9860
60.411
60.734
60.124
59.9512
59.9666
60.307
60.975
60.1516
60.1547
60.1330
60.1297
60.1733
60.2223
60.1613
60.780
60.895
60.1626
60.2072
60.2087
60.1585
60.1210
60.1042
60.1217
60.1548
60.1133
60.317
59.9980
60.292
60.727
60.829
60.406
60.15
59.9910
60.34
60.128
59.9403
59.8171
59.7679
59.7995
59.8408
59.8753
59.8598
59.8259
59.7941
59.7941
59.8353
59.8262
59.7332
59.6931
59.7574
59.8321
59.8659
59.8393
59.8134
59.8248
59.8525
59.8908
59.9171
59.8727
59.8320
59.8624
59.9391
60.169
60.288
60.84
60.157
60.616
60.1165
60.1215
60.457
60.134
60.668
60.1318
60.1945
60.2336
60.2309
60.2161
60.2270
60.2836
60.3102
60.2302
60.1741
60.2209
60.2991
60.3370
60.3073
60.2590
60.2322
60.2260
60.2555
60.2756
60.1981
60.1209
60.1122
60.1445
60.1765
60.1622
60.1157
60.918
60.971
60.1151
60.1060
59.9905
59.8863
59.8786
59.9231
59.9614
59.9711
59.9448
59.9129
59.8878
59.9044
59.9350
59.8743
59.7885
59.7860
59.8529
59.9083
59.9144
59.8720
59.8594
59.8638
59.8896
59.9338
59.9213
59.8596
59.8509
59.9084
59.9900
60.491
60.430
60.332
60.633
60.1090
60.1450
60.1023
60.288
60.266
60.833
60.1489
60.2057
60.2164
60.1984
60.1872
60.2213
60.2803
60.2537
60.1570
60.1347
60.2036
60.2611
60.2795
60.2318
60.1952
60.1760
60.1837
60.2172
60.2052
60.1195
60.597
60.713
60.1072
60.1272
60.839
60.386
60.139
60.240
60.341
59.9845
59.8502
59.7739
59.7896
59.8304
59.8651
59.8596
59.8224
59.7834
59.7761
59.8105
59.8239
59.7370
59.6738
59.7092
59.7845
59.8249
59.8055
59.7643
59.7588
59.7734
59.8129
59.8509
59.8165
59.7577
59.7576
59.8242
59.9112
59.9449
59.9194
59.9161
59.9595
60.147
60.394
59.9694
59.9100
59.9402
60.86
60.759
60.1276
60.1300
60.1157
60.1207
60.1673
60.2178
60.1560
60.769
60.928
60.1668
60.2082
60.1999
60.1520
60.1279
60.1205
60.1368
60.1656
60.1248
60.387
60.41
60.339
60.758
60.914
60.417
60.70
60.71
60.265
60.351
59.9649
59.8445
59.7969
59.8292
59.8717
59.9002
59.8855
59.8535
59.8218
59.8260
59.8677
59.8516
59.7609
59.7232
59.7880
59.8570
59.8839
59.8459
59.8229
59.8351
59.8725
59.9222
59.9464
59.8941
59.8631
59.9027
59.9790
60.555
60.656
60.412
60.486
60.991
60.1526
60.1524
60.719
60.432
60.898
60.1524
60.2138
60.2514
60.2473
60.2335
60.2508
60.3076
60.3275
60.2382
60.1843
60.2367
60.3098
60.3435
60.3110
60.2700
60.2481
60.2494
60.2781
60.2908
60.2119
60.1380
60.1375
60.1758
60.2029
60.1719
60.1208
60.903
60.981
60.1155
60.958
59.9790
59.8770
59.8652
59.9099
59.9496
59.9674
59.9448
59.9066
59.8812
59.9077
59.9547
59.8938
59.7975
59.8025
59.8808
59.9344
59.9348
59.8923
59.8749
59.8847
59.9125
59.9545
59.9260
59.8624
59.8524
59.9121
59.9963
60.542
60.356
60.162
60.416
60.960
60.1365
60.902
60.185
60.166
60.730
60.1402
60.1987
60.2124
60.1944
60.1831
60.2163
60.2727
60.2296
60.1305
60.1154
60.1852
60.2435
60.2485
60.1949
60.1500
60.1327
60.1404
60.1749
60.1583
60.735
60.228
60.367
60.749
60.949
60.485
60.12
59.9907
59.9996
60.48
59.9481
59.8237
59.7418
59.7550
59.8001
59.8382
59.8303
59.7905
59.7521
59.7395
59.7745
59.7945
59.7035
59.6321
59.6665
59.7395
59.7798
59.7655
59.7375
59.7350
59.7537
59.7904
59.8256
59.7887
59.7400
59.7518
59.8239
59.9049
59.9365
59.9128
59.9093
59.9501
60.45
60.243
59.9547
59.8994
59.9339
60.30
60.629
60.1105
60.1196
60.1070
60.1071
60.1578
60.2137
60.1581
60.774
60.955
60.1717
60.2161
60.2041
60.1539
60.1302
60.1245
60.1407
60.1648
60.1218
60.358
60.59
60.366
60.722
60.832
60.329
59.9907
59.9815
59.9993
60.46
59.9269
59.8030
59.7577
59.8002
59.8482
59.8840
59.8711
59.8391
59.8080
59.8091
59.8507
59.8340
59.7334
59.6916
59.7477
59.8179
59.8463
59.8090
59.7841
59.7915
59.8131
59.8550
59.8760
59.8194
59.7833
59.8198
59.8938
59.9732
59.9869
59.9696
59.9820
60.332
60.885
60.880
60.45
59.9666
60.117
60.749
60.1357
60.1656
60.1568
60.1374
60.1464
60.2031
60.2252
60.1402
60.877
60.1352
60.2117
60.2441
60.2112
60.1618
60.1352
60.1335
60.1525
60.1709
60.1018
60.201
60.105
60.510
60.855
60.746
60.243
59.9915
59.9929
60.44
59.9904
59.8777
59.7728
59.7524
59.7874
59.8259
59.8495
59.8215
59.7865
59.7612
59.7785
59.8174
59.7693
59.6808
59.6792
59.7514
59.8127
59.8197
59.7696
59.7572
59.7715
59.7995
59.8453
59.8350
59.7668
59.7510
59.8067
59.8919
59.9564
59.9454
59.9263
59.9465
59.9969
60.419
60.91
59.9273
59.9242
59.9840
60.522
60.1231
60.1514
60.1348
60.1218
60.1487
60.2118
60.1961
60.967
60.712
60.1360
60.1985
60.2143
60.1661
60.1235
60.1049
60.1162
60.1465
60.1416
60.562
59.9940
60.68
60.505
60.820
60.483
59.9990
59.9834
59.9920
60.59
59.9702
59.8496
59.7684
59.7799
59.8288
59.8695
59.8732
59.8429
59.8047
59.7889
59.8117
59.8380
59.7588
59.6820
59.7027
59.7831
59.8301
59.8196
59.7870
59.7808
59.7975
59.8337
59.8803
59.8575
59.8056
59.8093
59.8787
59.9639
60.113
59.9979
59.9926
60.227
60.827
60.1206
60.575
59.9955
60.141
60.774
60.1403
60.1957
60.2027
60.1933
60.1949
60.2396
60.2961
60.2438
60.1612
60.1718
60.2487
60.2966
60.2914
60.2493
60.2270
60.2155
60.2288
60.2633
60.2258
60.1400
60.1075
60.1371
60.1755
60.1836
60.1348
60.916
60.794
60.928
60.1059
60.299
59.9067
59.8600
59.8911
59.9309
59.9630
59.9472
59.9120
59.8785
59.8874
59.9321
59.9233
59.8272
59.7775
59.8350
59.9079
59.9361
59.9012
59.8653
59.8679
59.8912
59.9338
59.9450
59.8890
59.8490
59.8797
59.9518
60.278
60.458
60.225
60.310
60.830
60.1416
60.1404
60.577
60.261
60.713
60.1375
60.2021
60.2364
60.2320
60.2108
60.2275
60.2848
60.3027
60.2145
60.1623
60.2091
60.2733
60.2959
60.2639
60.2190
60.1937
60.1871
60.2193
60.2337
60.1569
60.757
60.754
60.1142
60.1463
60.1204
60.706
60.392
60.392
60.535
60.412
59.9263
59.8140
59.7995
59.8303
59.8669
59.8940
59.8647
59.8192
59.7867
59.7990
59.8311
59.7755
59.6840
59.6839
59.7517
59.8045
59.8132
59.7682
59.7503
59.7616
59.7963
59.8427
59.8407
59.7810
59.7605
59.8081
59.8846
59.9459
59.9347
59.9161
59.9362
59.9929
60.406
60.35
59.9208
59.9167
59.9802
60.497
60.1089
60.1239
60.1141
60.993
60.1300
60.1926
60.1858
60.947
60.641
60.1300
60.1917
60.2116
60.1704
60.1312
60.1084
60.1138
60.1482
60.1418
60.534
59.9906
59.9986
60.421
60.740
60.416
59.9944
59.9769
59.9907
60.100
59.9708
59.8479
59.7783
59.7939
59.8414
59.8820
59.8849
59.8569
59.8198
59.8044
59.8346
59.8640
59.7878
59.7179
59.7462
59.8202
59.8608
59.8497
59.8155
59.8123
59.8316
59.8729
59.9191
59.8849
59.8319
59.8398
59.9084
59.9925
60.374
60.240
60.299
60.719
60.1243
60.1515
60.888
60.317
60.591
60.1239
60.1871
60.2425
60.2421
60.2159
60.2111
60.2622
60.3175
60.2568
60.1734
60.1882
60.2621
60.3108
60.3106
60.2641
60.2284
60.2186
60.2391
60.2632
60.2129
60.1285
60.1034
60.1375
60.1746
60.1784
60.1267
60.908
60.824
60.905
60.976
60.170
59.8939
59.8451
59.8804
59.9196
59.9456
59.9234
59.8888
59.8585
59.8590
59.8994
59.8886
59.7920
59.7531
59.8166
59.8875
59.9218
59.8907
59.8627
59.8661
59.8907
59.9369
59.9530
59.8970
59.8548
59.8831
59.9547
60.324
60.397
60.171
60.225
60.641
60.1220
60.1181
60.400
60.123
60.604
60.1184
60.1782
60.2092
60.2006
60.1830
60.1955
60.2473
60.2605
60.1758
60.1213
60.1679
60.2302
60.2539
60.2166
60.1632
60.1353
60.1360
60.1568
60.1665
60.924
60.77
60.11
60.408
60.711
60.484
59.9959
59.9653
59.9664
59.9762
59.9620
59.8474
59.7408
59.7235
59.7644
59.8039
59.8158
59.7862
59.7504
59.7146
59.7287
59.7729
59.7212
59.6209
59.6126
59.6889
59.7437
59.7528
59.7067
59.6871
59.7012
59.7351
59.7850
59.7825
59.7242
59.7073
59.7615
59.8363
59.9006
59.8886
59.8729
59.8931
59.9415
59.9898
59.9580
59.8766
59.8655
59.9240
59.9883
60.522
60.738
60.596
60.415
60.661
60.1300
60.1279
60.361
60.79
60.707
60.1362
60.1569
60.1215
60.825
60.729
60.817
60.1124
60.1128
60.260
59.9611
59.9683
60.160
60.465
60.97
59.9576
59.9394
59.9483
59.9598
59.9320
59.8141
59.7361
59.7414
59.7827
59.8235
59.8347
59.8073
59.7742
59.7621
59.7977
59.8296
59.7566
59.6783
59.6991
59.7792
59.8341
59.8284
59.7848
59.7717
59.7861
59.8255
59.8705
59.8419
59.7845
59.7866
59.8444
59.9258
59.9804
59.9710
59.9652
59.9997
60.594
60.1018
60.437
59.9756
59.9898
60.535
60.1204
60.1790
60.1856
60.1618
60.1564
60.1988
60.2548
60.2120
60.1270
60.1296
60.2015
60.2523
60.2509
60.1991
60.1684
60.1603
60.1698
60.2006
60.1665
60.752
60.420
60.710
60.1099
60.1239
60.801
60.409
60.303
60.416
60.535
59.9780
59.8443
59.7921
59.8268
59.8710
59.8988
59.8766
59.8409
59.8098
59.8106
59.8471
59.8425
59.7491
59.6963
59.7450
59.8201
59.8561
59.8220
59.7924
59.7993
59.8231
59.8622
59.8974
59.8545
59.8047
59.8238
59.8967
59.9796
59.9979
59.9744
59.9704
60.162
60.661
60.712
59.9943
59.9535
59.9871
60.517
60.1156
60.1643
60.1568
60.1366
60.1443
60.1968
60.2308
60.1587
60.879
60.1242
60.2013
60.2405
60.2188
60.1664
60.1423
60.1363
60.1565
60.1722
60.1053
60.221
59.9994
60.316
60.663
60.567
60.28
59.9698
59.9743
59.9914
59.9860
59.8850
59.7755
59.7480
59.7883
59.8322
59.8597
59.8381
59.8040
59.7805
59.7900
59.8319
59.7977
59.6980
59.6763
59.7422
59.8083
59.8238
59.7853
59.7674
59.7768
59.8028
59.8465
59.8612
59.8098
59.7872
59.8349
59.9172
59.9933
59.9917
59.9763
59.9948
60.501
60.998
60.817
60.45
59.9869
60.455
60.1111
60.1798
60.2052
60.1896
60.1747
60.1994
60.2662
60.2601
60.1648
60.1311
60.1954
60.2615
60.2798
60.2449
60.2093
60.1993
60.2061
60.2351
60.2340
60.1516
60.911
60.1010
60.1441
60.1715
60.1371
60.934
60.759
60.819
60.971
60.653
59.9436
59.8570
59.8621
59.9034
59.9405
59.9494
59.9161
59.8773
59.8562
59.8871
59.9199
59.8484
59.7763
59.8043
59.8861
59.9341
59.9241
59.8833
59.8719
59.8925
59.9298
59.9710
59.9387
59.8781
59.8752
59.9382
60.168
60.577
60.411
60.405
60.774
60.1313
60.1707
60.1064
60.356
60.507
60.1201
60.1851
60.2442
60.2520
60.2287
60.2205
60.2649
60.3205
60.2708
60.1844
60.1934
60.2712
60.3187
60.3136
60.2605
60.2289
60.2133
60.2230
60.2485
60.1992
60.1040
60.569
60.810
60.1239
60.1433
60.931
60.470
60.382
60.564
60.663
59.9954
59.8718
59.8244
59.8548
59.8880
59.9070
59.8821
59.8493
59.8159
59.8065
59.8369
59.8292
59.7257
59.6704
59.7187
59.7910
59.8252
59.7999
59.7693
59.7679
59.7919
59.8357
59.8555
59.7989
59.7537
59.7825
59.8538
59.9340
59.9568
59.9320
59.9299
59.9693
60.177
60.305
59.9533
59.9129
59.9479
60.84
60.694
60.1123
60.977
60.745
60.787
60.1320
60.1702
60.923
60.270
60.651
60.1402
60.1849
60.1692
60.1284
60.1070
60.1046
60.1257
60.1490
60.864
60.6
59.9805
60.206
60.570
60.540
60.12
59.9686
59.9636
59.9817
59.9880
59.8918
59.7786
59.7588
59.8069
59.8478
59.8712
59.8555
59.8252
59.8009
59.8163
59.8609
59.8286
59.7397
59.7316
59.8062
59.8698
59.8860
59.8471
59.8314
59.8445
59.8772
59.9221
59.9252
59.8622
59.8370
59.8871
59.9677
60.441
60.478
60.360
60.563
60.1096
60.1609
60.1364
60.598
60.511
60.1072
60.1803
60.2515
60.2799
60.2702
60.2533
60.2800
60.3419
60.3357
60.2429
60.2186
60.2887
60.3462
60.3592
60.3105
60.2772
60.2586
60.2578
60.2884
60.2867
60.2050
60.1388
60.1531
60.1999
60.2274
60.1942
60.1458
60.1280
60.1404
60.1529
60.1099
59.9825
59.9105
59.9213
59.9624
59.9926
59.9972
59.9557
59.9085
59.8984
59.9263
59.9471
59.8629
59.7909
59.8142
59.8890
59.9352
59.9234
59.8858
59.8832
59.9044
59.9406
59.9749
59.9379
59.8857
59.8920
59.9560
60.340
60.715
60.509
60.404
60.721
60.1301
60.1549
60.873
60.235
60.380
60.1018
60.1620
60.2076
60.2075
60.1885
60.1830
60.2275
60.2766
60.2167
60.1340
60.1475
60.2185
60.2613
60.2523
60.2033
60.1660
60.1521
60.1672
60.1890
60.1406
60.495
60.148
60.375
60.646
60.668
60.104
59.9676
59.9561
59.9677
59.9773
59.8941
59.7707
59.7234
59.7531
59.7956
59.8272
59.8142
59.7693
59.7275
59.7272
59.7639
59.7520
59.6547
59.6050
59.6560
59.7247
59.7516
59.7204
59.6936
59.7008
59.7209
59.7604
59.7805
59.7304
59.6852
59.7122
59.7880
59.8696
59.8855
59.8598
59.8655
59.9143
59.9731
59.9893
59.9149
59.8745
59.9139
59.9791
60.392
60.791
60.730
60.439
60.501
60.1106
60.1435
60.595
59.9927
60.304
60.1104
60.1519
60.1368
60.921
60.674
60.663
60.879
60.1137
60.527
59.9680
59.9497
59.9862
60.208
60.199
59.9705
59.9374
59.9396
59.9642
59.9692
59.8668
59.7531
59.7243
59.7591
59.8030
59.8306
59.8089
59.7706
59.7399
59.7514
59.8046
59.7718
59.6799
59.6593
59.7310
59.8081
59.8335
59.7950
59.7752
59.7803
59.8128
59.8573
59.8698
59.8111
59.7836
59.8323
59.9130
59.9857
59.9841
59.9636
59.9813
60.378
60.872
60.664
59.9890
59.9709
60.284
60.937
60.1569
60.1864
60.1797
60.1685
60.1874
60.2499
60.2560
60.1686
60.1305
60.1888
60.2543
60.2810
60.2388
60.1989
60.1736
60.1739
60.2031
60.2068
60.1227
60.548
60.540
60.964
60.1257
60.999
60.498
60.234
60.298
60.491
60.202
59.9019
59.8155
59.8180
59.8653
59.9083
59.9155
59.8847
59.8388
59.8195
59.8455
59.8744
59.8009
59.7136
59.7301
59.8122
59.8659
59.8547
59.8135
59.8078
59.8221
59.8573
59.8997
59.8722
59.8231
59.8202
59.8778
59.9608
60.104
59.9949
59.9800
60.118
60.626
60.1031
60.494
59.9759
59.9855
60.399
60.990
60.1533
60.1632
60.1436
60.1376
60.1771
60.2373
60.1973
60.1026
60.1043
60.1765
60.2298
60.2359
60.1806
60.1469
60.1347
60.1452
60.1749
60.1488
60.559
60.100
60.291
60.698
60.837
60.314
59.9814
59.9650
59.9795
59.9902
59.9256
59.7964
59.7321
59.7576
59.8025
59.8346
59.8288
59.7952
59.7590
59.7522
59.7935
59.8043
59.7162
59.6568
59.6991
59.7788
59.8188
59.7968
59.7640
59.7604
59.7797
59.8202
59.8543
59.8111
59.7593
59.7803
59.8499
59.9323
59.9606
59.9383
59.9440
59.9888
60.438
60.618
59.9900
59.9421
59.9798
60.526
60.1199
60.1641
60.1645
60.1534
60.1543
60.1992
60.2388
60.1690
60.958
60.1265
60.2016
60.2410
60.2292
60.1856
60.1578
60.1553
60.1768
60.2090
60.1568
60.670
60.420
60.753
60.1147
60.1154
60.665
60.338
60.365
60.476
60.464
59.9541
59.8392
59.8120
59.8497
59.8870
59.9165
59.8937
59.8575
59.8174
59.8190
59.8626
59.8319
59.7359
59.7094
59.7791
59.8473
59.8684
59.8300
59.8129
59.8227
59.8503
59.9020
59.9168
59.8534
59.8220
59.8659
59.9463
60.142
60.107
59.9956
60.150
60.643
60.1077
60.888
60.34
59.9855
60.467
60.1170
60.1780
60.2033
60.1930
60.1771
60.1959
60.2569
60.2686
60.1855
60.1500
60.2059
60.2718
60.2980
60.2596
60.2215
60.2024
60.2002
60.2258
60.2350
60.1536
60.878
60.918
60.1255
60.1508
60.1225
60.679
60.452
60.467
60.660
60.467
59.9228
59.8313
59.8378
59.8886
59.9227
59.9322
59.9043
59.8623
59.8414
59.8698
59.8987
59.8226
59.7399
59.7594
59.8383
59.8836
59.8769
59.8378
59.8253
59.8348
59.8689
59.9136
59.8921
59.8306
59.8278
59.8891
59.9711
60.266
60.106
60.18
60.319
60.909
60.1320
60.765
60.53
60.205
60.890
60.1518
60.2087
60.2147
60.1943
60.1786
60.2162
60.2726
60.2313
60.1410
60.1354
60.2020
60.2546
60.2622
60.2125
60.1811
60.1702
60.1857
60.2218
60.1898
60.964
60.561
60.861
60.1286
60.1469
60.1038
60.557
60.400
60.541
60.656
59.9952
59.8677
59.8124
59.8402
59.8847
59.9230
59.9115
59.8751
59.8355
59.8295
59.8688
59.8759
59.7843
59.7326
59.7836
59.8618
59.8987
59.8700
59.8448
59.8450
59.8721
59.9225
59.9558
59.9142
59.8622
59.8745
59.9520
60.408
60.609
60.405
60.478
60.934
60.1522
60.1652
60.854
60.495
60.933
60.1634
60.2237
60.2684
60.2753
60.2543
60.2580
60.3154
60.3530
60.2825
60.2195
60.2576
60.3274
60.3601
60.3411
60.2976
60.2692
60.2613
60.2825
60.3035
60.2410
60.1652
60.1490
60.1791
60.2141
60.2014
60.1482
60.1121
60.1148
60.1362
60.1296
60.253
59.9205
59.9044
59.9422
59.9818
60.16
59.9798
59.9397
59.9098
59.9268
59.9680
59.9183
59.8210
59.8125
59.8799
59.9360
59.9465
59.9053
59.8829
59.8898
59.9206
59.9688
59.9633
59.9081
59.8954
59.9399
60.170
60.768
60.728
60.580
60.807
60.1352
60.1827
60.1505
60.703
60.673
60.1230
60.1818
60.2412
60.2530
60.2407
60.2164
60.2361
60.2919
60.2779
60.1838
60.1572
60.2202
60.2810
60.2988
60.2544
60.2191
60.1968
60.2050
60.2312
60.2191
60.1291
60.656
60.742
60.1029
60.1248
60.802
60.317
60.28
60.50
60.127
59.9722
59.8486
59.7672
59.7780
59.8170
59.8395
59.8296
59.7909
59.7551
59.7392
59.7717
59.7956
59.7085
59.6302
59.6592
59.7334
59.7772
59.7628
59.7241
59.7127
59.7288
59.7579
59.7910
59.7520
59.6950
59.7006
59.7651
59.8389
59.8738
59.8573
59.8540
59.8884
59.9483
59.9816
59.9171
59.8521
59.8726
59.9460
60.189
60.794
60.859
60.622
60.531
60.929
60.1498
60.1004
60.141
60.148
60.889
60.1435
60.1463
60.1020
60.678
60.504
60.598
60.944
60.636
59.9757
59.9337
59.9638
60.125
60.293
59.9854
59.9466
59.9414
59.9578
59.9695
59.9066
59.7858
59.7330
59.7663
59.8083
59.8355
59.8203
59.7893
59.7611
59.7672
59.8028
59.8089
59.7164
59.6592
59.7149
59.7909
59.8300
59.8102
59.7793
59.7875
59.8055
59.8522
59.8890
59.8447
59.8048
59.8288
59.9065
59.9893
60.139
59.9870
59.9853
60.286
60.846
60.951
60.235
59.9849
60.207
60.857
60.1494
60.1913
60.1892
60.1747
60.1866
60.2411
60.2746
60.1939
60.1267
60.1660
60.2447
60.2850
60.2659
60.2175
60.1927
60.1908
60.2101
60.2335
60.1628
60.761
60.656
60.1026
60.1387
60.1189
60.604
60.274
60.277
60.407
60.369
59.9383
59.8360
59.8142
59.8549
59.8917
59.9160
59.8935
59.8480
59.8171
59.8307
59.8709
59.8289
59.7408
59.7290
59.7980
59.8597
59.8753
59.8319
59.8047
59.8094
59.8394
59.8837
59.8850
59.8259
59.8040
59.8524
59.9297
59.9978
59.9908
59.9678
59.9892
60.494
60.984
60.687
59.9871
59.9773
60.322
60.937
60.1524
60.1697
60.1567
60.1424
60.1623
60.2206
60.2129
60.1150
60.766
60.1401
60.2041
60.2286
60.1853
60.1478
60.1266
60.1301
60.1604
60.1606
60.724
60.9
60.95
60.522
60.812
60.486
59.9958
59.9789
59.9833
59.9970
59.9677
59.8416
59.7506
59.7587
59.7968
59.8227
59.8188
59.7892
59.7472
59.7250
59.7498
59.7853
59.7160
59.6417
59.6596
59.7391
59.7950
59.7851
59.7373
59.7333
59.7508
59.7822
59.8255
59.8022
59.7450
59.7451
59.8078
59.8848
59.9343
59.9176
59.9118
59.9484
60.13
60.372
59.9815
59.9142
59.9281
59.9915
60.601
60.1227
60.1324
60.1153
60.1090
60.1496
60.2143
60.1872
60.978
60.970
60.1659
60.2192
60.2214
60.1763
60.1451
60.1343
60.1465
60.1772
60.1513
60.557
60.23
60.212
60.628
60.841
60.392
59.9974
59.9899
60.42
60.164
59.9653
59.8451
59.7814
59.8098
59.8539
59.8828
59.8672
59.8303
59.7959
59.7891
59.8273
59.8344
59.7484
59.6819
59.7218
59.7999
59.8384
59.8057
59.7686
59.7733
59.8017
59.8428
59.8687
59.8215
59.7735
59.7951
59.8619
59.9443
59.9753
59.9553
59.9562
60.27
60.616
60.803
60.27
59.9553
59.9917
60.568
60.1124
60.1523
60.1504
60.1275
60.1330
60.1823
60.2251
60.1580
60.836
60.1050
60.1807
60.2273
60.2171
60.1737
60.1544
60.1552
60.1747
60.1973
60.1373
60.526
60.253
60.561
60.986
60.1038
60.617
60.201
60.53
60.258
60.321
59.9337
59.8168
59.7830
59.8221
59.8648
59.8963
59.8776
59.8407
59.8078
59.8134
59.8538
59.8275
59.7310
59.7087
59.7785
59.8473
59.8696
59.8255
59.7976
59.8011
59.8255
59.8740
59.8839
59.8233
59.7911
59.8260
59.8993
59.9750
59.9778
59.9548
59.9673
60.159
60.718
60.603
59.9732
59.9538
60.63
60.751
60.1418
60.1747
60.1683
60.1466
60.1594
60.2171
60.2296
60.1367
60.846
60.1407
60.2110
60.2407
60.2051
60.1586
60.1365
60.1358
60.1629
60.1684
60.866
60.171
60.221
60.680
60.958
60.660
60.175
60.31
60.162
60.355
60.133
59.8896
59.7962
59.7950
59.8405
59.8844
59.9010
59.8689
59.8260
59.8029
59.8306
59.8777
59.8085
59.7157
59.7223
59.7966
59.8542
59.8561
59.8116
59.8102
59.8311
59.8713
59.9170
59.9032
59.8540
59.8509
59.9138
59.9930
60.463
60.344
60.245
60.517
60.1097
60.1541
60.1049
60.356
60.489
60.1091
60.1722
60.2293
60.2454
60.2306
60.2220
60.2573
60.3183
60.2868
60.2008
60.1944
60.2706
60.3291
60.3338
60.2810
60.2490
60.2439
60.2608
60.2976
60.2701
60.1801
60.1306
60.1490
60.1896
60.2081
60.1649
60.1198
60.1043
60.1111
60.1239
60.656
59.9422
59.8844
59.9068
59.9534
59.9920
59.9858
59.9545
59.9298
59.9276
59.9687
59.9668
59.8767
59.8239
59.8735
59.9502
59.9785
59.9427
59.9089
59.9142
59.9360
59.9723
60.10
59.9543
59.9129
59.9374
60.94
60.863
60.1127
60.944
60.1001
60.1462
60.1991
60.2055
60.1222
60.780
60.1190
60.1864
60.2459
60.2851
60.2780
60.2532
60.2595
60.3120
60.3452
60.2625
60.1922
60.2306
60.3048
60.3350
60.3097
60.2595
60.2329
60.2274
60.2424
60.2586
60.1942
60.1063
60.911
60.1315
60.1627
60.1518
60.973
60.582
60.527
60.627
60.523
59.9348
59.8197
59.7959
59.8314
59.8649
59.8848
59.8568
59.8175
59.7881
59.7971
59.8349
59.7860
59.6792
59.6581
59.7339
59.7968
59.8043
59.7579
59.7354
59.7387
59.7624
59.8179
59.8274
59.7650
59.7380
59.7800
59.8556
59.9202
59.9177
59.8964
59.9067
59.9548
60.55
59.9837
59.9068
59.8897
59.9437
60.113
60.766
60.1037
60.950
60.812
60.1012
60.1646
60.1692
60.795
60.358
60.981
60.1648
60.1895
60.1512
60.1101
60.903
60.968
60.1216
60.1259
60.469
59.9792
59.9810
60.246
60.572
60.308
59.9831
59.9617
59.9697
59.9906
59.9678
59.8508
59.7654
59.7691
59.8095
59.8519
59.8633
59.8374
59.8022
59.7843
59.8164
59.8534
59.7839
59.6984
59.7050
59.7832
59.8400
59.8357
59.7963
59.7841
59.8035
59.8423
59.8861
59.8680
59.8198
59.8192
59.8805
59.9684
60.272
60.95
60.19
60.345
60.938
60.1302
60.820
60.179
60.257
60.861
60.1526
60.2202
60.2325
60.2169
60.2095
60.2469
60.3019
60.2557
60.1739
60.1757
60.2533
60.3075
60.3141
60.2671
60.2366
60.2282
60.2450
60.2780
60.2509
60.1603
60.1183
60.1435
60.1830
60.1966
60.1477
60.1057
60.900
60.1012
60.1114
60.430
59.9196
59.8656
59.8911
59.9250
59.9522
59.9392
59.9037
59.8695
59.8723
59.9126
59.9160
59.8167
59.7605
59.8175
59.8942
59.9241
59.8898
59.8603
59.8616
59.8773
59.9160
59.9365
59.8913
59.8518
59.8693
59.9371
60.78
60.282
60.110
60.191
60.546
60.1031
60.1051
60.280
59.9882
60.298
60.890
60.1496
60.1892
60.1856
60.1672
60.1704
60.2220
60.2548
60.1698
60.999
60.1377
60.2139
60.2432
60.2100
60.1603
60.1306
60.1156
60.1370
60.1596
60.957
60.93
59.9921
60.374
60.786
60.760
60.224
59.9906
59.9846
59.9918
59.9904
59.8870
59.7720
59.7497
59.7881
59.8239
59.8471
59.8251
59.7801
59.7415
59.7558
59.8046
59.7685
59.6721
59.6456
59.7187
59.7837
59.8003
59.7495
59.7273
59.7414
59.7745
59.8244
59.8313
59.7700
59.7497
59.7906
59.8721
59.9484
59.9484
59.9314
59.9461
59.9970
60.489
60.282
59.9427
59.9182
59.9749
60.401
60.1049
60.1304
60.1148
60.963
60.1177
60.1874
60.1981
60.1156
60.767
60.1368
60.2026
60.2267
60.1973
60.1556
60.1350
60.1332
60.1567
60.1628
60.788
60.52
60.101
60.539
60.887
60.617
60.64
59.9808
59.9919
60.144
59.9948
59.8711
59.7742
59.7762
59.8179
59.8555
59.8681
59.8403
59.8081
59.7876
59.8105
59.8515
59.7885
59.7042
59.7173
59.7943
59.8459
59.8421
59.7950
59.7839
59.7971
59.8331
59.8737
59.8511
59.7912
59.7906
59.8521
59.9341
59.9964
59.9840
59.9720
59.9990
60.569
60.962
60.447
59.9757
59.9845
60.465
60.1137
60.1731
60.1828
60.1672
60.1603
60.1944
60.2468
60.2094
60.1207
60.1133
60.1871
60.2436
60.2436
60.1923
60.1577
60.1448
60.1569
60.1879
60.1704
60.787
60.322
60.575
60.1000
60.1207
60.790
60.294
60.152
60.270
60.415
59.9837
59.8576
59.7944
59.8168
59.8578
59.8919
59.8772
59.8405
59.8095
59.8083
59.8429
59.8538
59.7680
59.7068
59.7517
59.8303
59.8624
59.8334
59.7969
59.7971
59.8180
59.8586
59.8956
59.8494
59.7988
59.8166
59.8881
59.9701
59.9940
59.9687
59.9684
60.81
60.580
60.718
59.9953
59.9407
59.9711
60.368
60.1031
60.1486
60.1533
60.1319
60.1359
60.1904
60.2356
60.1559
60.793
60.1126
60.1909
60.2298
60.2080
60.1585
60.1296
60.1209
60.1393
60.1682
60.1175
60.270
59.9985
60.341
60.756
60.707
60.139
59.9775
59.9739
59.9907
59.9973
59.9085
59.7884
59.7590
59.7992
59.8384
59.8674
59.8494
59.8181
59.7892
59.7954
59.8364
59.8149
59.7141
59.6844
59.7531
59.8219
59.8455
59.8035
59.7835
59.7898
59.8211
59.8696
59.8888
59.8332
59.8037
59.8493
59.9299
60.104
60.145
59.9974
60.110
60.659
60.1207
60.1014
60.243
60.35
60.542
60.1215
60.1899
60.2223
60.2111
60.1919
60.2080
60.2738
60.2816
60.1870
60.1484
60.2122
60.2834
60.3084
60.2700
60.2323
60.2186
60.2245
60.2585
60.2660
60.1888
60.1212
60.1235
60.1623
60.1950
60.1693
60.1130
60.847
60.934
60.1119
60.889
59.9645
59.8773
59.8849
59.9303
59.9649
59.9693
59.9357
59.8978
59.8766
59.9078
59.9449
59.8782
59.7989
59.8201
59.8988
59.9495
59.9442
59.9064
59.8940
59.9081
59.9458
59.9918
59.9653
59.9125
59.9068
59.9624
60.429
60.910
60.725
60.622
60.981
60.1541
60.1869
60.1355
60.662
60.802
60.1441
60.2076
60.2663
60.2719
60.2536
60.2503
60.2903
60.3456
60.2969
60.2062
60.2094
60.2843
60.3280
60.3287
60.2711
60.2353
60.2156
60.2306
60.2581
60.2155
60.1256
60.840
60.1141
60.1541
60.1589
60.1072
60.612
60.544
60.734
60.824
60.68
59.8788
59.8279
59.8606
59.8992
59.9301
59.9169
59.8759
59.8358
59.8338
59.8647
59.8557
59.7543
59.6954
59.7473
59.8236
59.8570
59.8229
59.7874
59.7927
59.8200
59.8667
59.8918
59.8340
59.7890
59.8123
59.8884
59.9648
59.9861
59.9604
59.9572
59.9940
60.480
60.657
59.9877
59.9405
59.9724
60.405
60.1090
60.1553
60.1458
60.1262
60.1304
60.1830
60.2148
60.1357
60.747
60.1173
60.1964
60.2332
60.2125
60.1638
60.1422
60.1450
60.1702
60.1940
60.1264
60.407
60.243
60.626
60.1028
60.951
60.488
60.87
60.37
60.224
60.258
59.9268
59.8209
59.7956
59.8386
59.8799
59.9089
59.8979
59.8570
59.8223
59.8361
59.8842
59.8502
59.7622
59.7443
59.8160
59.8852
59.8970
59.8532
59.8383
59.8540
59.8876
59.9339
59.9365
59.8777
59.8498
59.8920
59.9763
60.543
60.542
60.367
60.604
60.1190
60.1705
60.1444
60.654
60.638
60.1244
60.1898
60.2517
60.2651
60.2555
60.2399
60.2619
60.3261
60.3160
60.2248
60.1975
60.2652
60.3332
60.3575
60.3115
60.2740
60.2629
60.2702
60.2990
60.2925
60.2082
60.1475
60.1620
60.2100
60.2358
60.1991
60.1497
60.1369
60.1521
60.1710
60.1297
60.49
59.9262
59.9310
59.9716
60.56
60.68
59.9674
59.9275
59.9175
59.9497
59.9686
59.8831
59.8153
59.8460
59.9225
59.9719
59.9601
59.9234
59.9190
59.9379
59.9755
60.95
59.9686
59.9150
59.9256
59.9936
60.686
60.990
60.747
60.677
60.1039
60.1551
60.1753
60.948
60.371
60.644
60.1292
60.1892
60.2370
60.2298
60.2086
60.2084
60.2518
60.2926
60.2241
60.1354
60.1503
60.2233
60.2695
60.2558
60.1986
60.1599
60.1391
60.1523
60.1866
60.1442
60.459
60.47
60.269
60.623
60.589
60.24
59.9594
59.9486
59.9618
59.9684
59.8878
59.7661
59.7171
59.7439
59.7857
59.8177
59.8008
59.7616
59.7228
59.7190
59.7565
59.7490
59.6478
59.5968
59.6512
59.7204
59.7460
59.7135
59.6807
59.6809
59.7029
59.7481
59.7754
59.7249
59.6819
59.7075
59.7864
59.8685
59.8811
59.8573
59.8712
59.9190
59.9747
59.9862
59.9080
59.8687
59.9081
59.9762
60.462
60.856
60.722
60.512
60.594
60.1172
60.1434
60.638
60.90
60.582
60.1317
60.1627
60.1429
60.1017
60.826
60.800
60.1128
60.1390
60.768
59.9902
59.9687
60.71
60.449
60.365
59.9857
59.9531
59.9503
59.9635
59.9657
59.8611
59.7499
59.7254
59.7662
59.8034
59.8322
59.8083
59.7705
59.7444
59.7599
59.8014
59.7712
59.6773
59.6625
59.7349
59.8013
59.8199
59.7747
59.7556
59.7663
59.7993
59.8401
59.8447
59.7875
59.7667
59.8166
59.8961
59.9612
59.9547
59.9394
59.9597
60.94
60.553
60.321
59.9577
59.9414
60.52
60.726
60.1375
60.1697
60.1613
60.1464
60.1670
60.2265
60.2290
60.1343
60.909
60.1534
60.2194
60.2396
60.1988
60.1575
60.1315
60.1323
60.1649
60.1656
60.749
60.42
60.125
60.533
60.853
60.623
60.101
59.9854
59.9948
60.107
59.9865
59.8670
59.7764
59.7815
59.8287
59.8719
59.8775
59.8369
59.8011
59.7810
59.8082
59.8373
59.7671
59.6825
59.6999
59.7750
59.8257
59.8144
59.7716
59.7660
59.7869
59.8310
59.8749
59.8474
59.7916
59.7910
59.8543
59.9292
59.9768
59.9591
59.9526
59.9786
60.336
60.720
60.168
59.9509
59.9603
60.188
60.803
60.1380
60.1493
60.1339
60.1174
60.1475
60.2092
60.1827
60.977
60.931
60.1660
60.2226
60.2325
60.1868
60.1547
60.1424
60.1517
60.1804
60.1520
60.663
60.192
60.405
60.773
60.948
60.489
59.9968
59.9787
59.9954
60.95
59.9425
59.8192
59.7650
59.7947
59.8359
59.8686
59.8627
59.8305
59.7986
59.7952
59.8324
59.8424
59.7515
59.6907
59.7409
59.8199
59.8575
59.8335
59.7971
59.7990
59.8179
59.8549
59.8847
59.8393
59.7945
59.8185
59.8896
59.9714
59.9975
59.9776
59.9782
60.245
60.786
60.990
60.318
59.9907
60.251
60.861
60.1500
60.1912
60.1910
60.1741
60.1771
60.2290
60.2713
60.1961
60.1245
60.1478
60.2196
60.2638
60.2518
60.2091
60.1808
60.1709
60.1928
60.2182
60.1665
60.862
60.672
60.1064
60.1456
60.1394
60.867
60.557
60.598
60.819
60.787
59.9836
59.8692
59.8377
59.8772
59.9174
59.9444
59.9223
59.8794
59.8519
59.8629
59.9085
59.8792
59.7822
59.7596
59.8297
59.8999
59.9215
59.8787
59.8532
59.8574
59.8873
59.9377
59.9531
59.8996
59.8733
59.9179
59.9942
60.648
60.580
60.390
60.534
60.1071
60.1576
60.1282
60.500
60.338
60.897
60.1563
60.2217
60.2468
60.2410
60.2257
60.2464
60.3108
60.3064
60.2142
60.1802
60.2464
60.3108
60.3322
60.2907
60.2544
60.2313
60.2356
60.2608
60.2625
60.1751
60.1030
60.1051
60.1428
60.1705
60.1441
60.910
60.642
60.712
60.882
60.606
59.9364
59.8490
59.8555
59.8977
59.9320
59.9420
59.9113
59.8720
59.8487
59.8724
59.8995
59.8206
59.7382
59.7548
59.8289
59.8742
59.8563
59.8128
59.8001
59.8158
59.8591
59.9063
59.8741
59.8139
59.8120
59.8760
59.9628
60.97
59.9952
59.9923
60.276
60.810
60.1143
60.475
59.9761
59.9919
60.590
60.1209
60.1755
60.1762
60.1618
60.1540
60.1943
60.2459
60.1957
60.1062
60.1104
60.1927
60.2451
60.2409
60.1914
60.1604
60.1470
60.1696
60.2031
60.1665
60.801
60.397
60.675
60.1107
60.1304
60.824
60.372
60.312
60.502
60.615
59.9952
59.8709
59.8078
59.8333
59.8780
59.9095
59.9068
59.8759
59.8459
59.8438
59.8817
59.8841
59.7927
59.7500
59.8059
59.8838
59.9194
59.8928
59.8597
59.8621
59.8888
59.9324
59.9586
59.9131
59.8698
59.8997
59.9774
60.602
60.749
60.531
60.593
60.1082
60.1667
60.1759
60.988
60.647
60.1104
60.1739
60.2338
60.2766
60.2765
60.2570
60.2699
60.3325
60.3635
60.2832
60.2217
60.2638
60.3405
60.3766
60.3423
60.2994
60.2771
60.2734
60.2978
60.3073
60.2299
60.1551
60.1519
60.1948
60.2285
60.2124
60.1598
60.1323
60.1421
60.1652
60.1563
60.383
59.9417
59.9356
59.9766
60.148
60.331
60.75
59.9672
59.9394
59.9613
60.29
59.9414
59.8465
59.8461
59.9269
59.9840
59.9849
59.9417
59.9294
59.9385
59.9710
60.170
60.29
59.9550
59.9467
59.9970
60.743
60.1286
60.1130
60.953
60.1245
60.1791
60.2215
60.1747
60.917
60.842
60.1407
60.2036
60.2616
60.2782
60.2577
60.2402
60.2752
60.3331
60.3012
60.1996
60.1807
60.2501
60.3080
60.3112
60.2592
60.2146
60.1958
60.2085
60.2392
60.2175
60.1260
60.682
60.826
60.1173
60.1322
60.737
60.180
59.9976
60.63
60.126
59.9558
59.8248
59.7501
59.7611
59.7989
59.8292
59.8213
59.7882
59.7558
59.7396
59.7712
59.7871
59.7004
59.6279
59.6615
59.7340
59.7716
59.7463
59.7067
59.6997
59.7163
59.7591
59.7959
59.7505
59.6909
59.7033
59.7758
59.8573
59.8916
59.8697
59.8708
59.9178
59.9843
60.247
59.9642
59.9190
59.9644
60.493
60.1257
60.1923
60.2110
60.2155
60.2364
60.3092
60.3814
60.3396
60.2847
60.3321
60.4429
60.5200
60.5374
60.5248
60.5414
60.5885
60.6654
60.7491
60.7469
60.7280
60.7797
60.8909
61.68
61.718
61.1001
61.1596
61.2618
61.3777
61.4462
61.4145
61.4294
61.5557
61.7157
61.8720
61.9898
62.769
62.1702
62.3082
62.4926
62.6010
62.6495
62.7980
63.326
63.2438
63.3832
63.5155
63.6881
63.8873
64.1146
64.3003
64.4304
64.6014
64.8531
65.1322
65.3626
65.5442
65.7549
66.127
66.2668
66.4167
66.5703
66.8174
67.1066
67.4083
67.6649
67.8750
68.995
68.3854
68.6290
68.7907
69.266
69.3361
69.6259
69.8478
70.679
70.3042
70.5777
70.8368
71.198
71.2418
71.5298
71.8257
72.727
72.3094
72.5739
72.8551
73.706
73.2409
73.4987
73.8179
74.1485
74.4220
74.6679
74.9360
75.2434
75.4637
75.7112
76.567
76.3978
76.6777
76.9530
77.2484
77.5817
77.8708
78.1202
78.4425
78.8194
79.1647
79.4678
79.7933
80.1307
80.3908
80.6670
81.117
81.3804
81.7324
82.360
82.3510
82.6963
82.9519
83.2499
83.6090
83.9449
84.2449
84.5357
84.8580
85.1622
85.4138
85.7274
86.798
86.3949
86.6913
86.9986
87.2934
87.5165
87.8018
88.1465
88.5067
88.8148
89.1112
89.4422
89.7028
90.157
90.3835
90.7251
91.488
91.3719
91.7191
92.134
92.3284
92.7054
93.783
93.4204
93.7681
94.887
94.3663
94.7049
95.838
95.4588
95.7845
96.1323
96.4326
96.7214
97.855
97.4344
97.7556
98.572
98.3827
98.6617
98.9636
99.3122
99.6409
99.9594
100.2807
100.5383
100.8073
101.1440
101.5088
101.8303
102.1385
102.4461
102.7267
103.768
103.4263
103.7583
104.898
104.4247
104.7161
105.570
105.4460
105.8024
106.1475
106.4684
106.7594
107.1000
107.4775
107.8322
108.1646
108.4947
108.7785
109.1282
109.4814
109.8134
110.1215
110.4279
110.7076
111.381
111.3758
111.7016
112.167
112.2698
112.5529
112.8903
113.2445
113.5499
113.8704
114.1442
114.4786
114.8275
115.1703
115.4962
115.8064
116.1000
116.4592
116.8313
117.1797
117.5084
117.7960
118.1273
118.4998
118.8474
119.1869
119.4836
119.7967
120.1434
120.4840
120.7966
121.1059
121.3850
121.7075
122.506
122.3793
122.6842
122.9365
123.2377
123.5942
123.9209
124.2313
124.5035
124.8328
125.1797
125.5247
125.8567
126.1602
126.4710
126.8424
127.2049
127.5511
127.8425
128.1562
128.5211
128.8824
129.2215
129.5184
129.8401
130.1899
130.5281
130.8423
131.1277
131.4229
131.7563
132.889
132.4074
132.6644
132.9556
133.3051
133.6269
133.9404
134.2208
134.5516
134.8907
135.2225
135.5412
135.8283
136.1751
136.5431
136.8890
137.1842
137.4926
137.8456
138.1981
138.5320
138.8140
139.1373
139.4773
139.7985
140.1021
140.3764
140.6900
141.224
141.3425
141.6011
141.8708
142.2036
142.5223
142.8287
143.1088
143.4325
143.7706
144.933
144.3921
144.6904
145.473
145.3967
145.7118
146.44
146.3391
146.6952
147.330
147.3200
147.6347
147.9737
148.2906
148.5834
148.8640
149.1864
149.5195
149.8196
150.762
150.3809
150.7220
151.352
151.3140
151.6265
151.9616
152.2941
152.6001
152.9036
153.2650
153.6176
153.9275
154.2231
154.5662
154.9131
155.2425
155.5372
155.8636
156.2026
156.5122
156.7922
157.993
157.4314
157.7480
158.91
158.3025
158.6434
158.9581
159.2403
159.5523
159.8863
160.2152
160.5109
160.8244
161.1830
161.5261
161.8211
162.1300
162.4837
162.8233
163.1185
163.4290
163.7641
164.743
164.3576
164.6558
164.9831
165.2985
165.5578
165.8490
166.1832
166.4908
166.7681
167.784
167.4154
167.7377
168.249
168.3577
168.7108
169.259
169.3182
169.6551
169.9947
170.3081
170.6080
170.9396
171.2567
171.5443
171.8293
172.1529
172.4676
172.7304
173.215
173.3512
173.6596
173.9437
174.2548
174.5850
174.8961
175.1918
175.5423
175.8835
176.1826
176.4894
176.8408
177.1737
177.4639
177.7828
178.1111
178.4107
178.6922
179.140
179.3368
179.6048
179.8869
180.2124
180.5219
180.8079
181.1208
181.4481
181.7552
182.579
182.4063
182.7325
183.222
183.3466
183.6896
184.17
184.3007
184.6309
184.9406
185.2197
185.5229
185.8525
186.1401
186.4074
186.7335
187.516
187.3378
187.6460
187.9753
188.2810
188.5825
188.9348
189.2672
189.5608
189.8868
190.2242
190.5328
190.8399
191.1708
191.4736
191.7530
192.724
192.3916
192.6596
192.9523
193.2764
193.5761
193.8695
194.1943
194.5127
194.8004
195.1361
195.4750
195.7699
196.770
196.4170
196.7322
197.282
197.3529
197.6521
197.9268
198.2371
198.5537
198.8233
199.1156
199.4292
199.7160
200.73
200.3279
200.6386
200.9324
201.2760
201.5981
201.8863
202.2101
202.5413
202.8389
203.1543
203.4742
203.7568
204.458
204.3685
204.6553
204.9280
205.2477
205.5501
205.8394
206.1619
206.4783
206.7662
207.1018
207.4359
207.7323
208.590
208.3913
208.6903
209.18
209.3203
209.6119
209.9109
210.2313
210.5126
210.7949
211.1121
211.4094
211.7054
212.336
212.3394
212.6376
212.9806
213.2947
213.5928
213.9265
214.2465
214.5435
214.8701
215.1697
215.4484
215.7667
216.664
216.3363
216.6506
216.9469
217.2333
217.5531
217.8648
218.1537
218.4904
218.8061
219.1005
219.4309
219.7469
220.447
220.3710
220.6658
220.9467
221.2621
221.5534
221.8269
222.1435
222.4393
222.7334
223.563
223.3600
223.6638
224.25
224.3092
224.6159
224.9497
225.2534
225.5624
225.8783
226.1654
226.4683
226.7845
227.577
227.3628
227.6658
227.9510
228.2686
228.5822
228.8718
229.2093
229.5236
229.8204
230.1495
230.4599
230.7593
231.833
231.3733
231.6652
231.9812
232.2568
232.5580
232.8630
233.1492
233.4646
233.7778
234.704
234.4057
234.7174
235.203
235.3518
235.6564
235.9639
236.2812
236.5638
236.8690
237.1743
237.4446
237.7546
238.489
238.3391
238.6606
238.9611
239.2705
239.5993
239.8962
240.2139
240.5333
240.8271
241.1467
241.4400
241.7267
242.395
242.3145
242.6083
242.9090
243.1908
243.5037
243.8065
244.1007
244.4320
244.7324
245.412
245.3626
245.6515
245.9686
246.2655
246.5484
246.8610
247.1392
247.4344
247.7365
248.222
248.3399
248.6463
248.9449
249.2747
249.5766
249.8957
250.2152
250.5075
250.8276
251.1215
251.4147
251.7243
251.9962
252.3004
252.5963
252.8862
253.2029
253.4975
253.8182
254.1324
254.4254
254.7500
255.542
255.3622
255.6686
255.9470
256.2536
256.5384
256.8237
257.1274
257.4090
257.7183
258.193
258.3148
258.6382
258.9309
259.2475
259.5574
259.8501
260.1605
260.4401
260.7411
261.324
261.3036
261.6090
261.8930
262.1986
262.5011
262.7942
263.1191
263.4147
263.7299
264.390
264.3321
264.6438
264.9246
265.2256
265.5175
265.7947
266.969
266.3791
266.6877
266.9854
267.2875
267.6072
267.8969
268.2140
268.5179
268.8222
269.1256
269.4011
269.7076
269.9864
270.2818
270.5740
270.8572
271.1702
271.4591
271.7783
272.867
272.3888
272.7064
272.9962
273.3082
273.5929
273.8868
274.1811
274.4527
274.7552
275.363
275.3415
275.6395
275.9409
276.2557
276.5444
276.8601
277.1550
277.4646
277.7593
278.398
278.3376
278.6047
278.9039
279.1891
279.4864
279.7839
280.721
280.3873
280.6763
280.9895
281.2843
281.5863
281.8768
282.1527
282.4496
282.7164
283.101
283.2916
283.5879
283.8894
284.1822
284.4938
284.7800
285.957
285.3926
285.6991
285.9888
286.2727
286.5683
286.8375
287.1380
287.4180
287.7208
288.129
288.3186
288.6260
288.9204
289.2354
289.5242
289.8319
290.1142
290.4127
290.6967
290.9800
291.2713
291.5546
291.8649
292.1493
292.4582
292.7384
293.327
293.3247
293.6129
293.8895
294.1497
294.4268
294.6752
294.9496
295.2042
295.4774
295.7425
296.213
296.2932
296.5538
296.8259
297.761
297.3430
297.5783
297.8302
298.558
298.2984
298.5326
298.7699
299.92
299.2404
299.4831
299.7039
299.9450
300.1568
300.3842
300.5844
300.7931
300.9861
301.1747
301.3634
301.5473
301.7438
301.9220
302.1215
302.2926
302.4813
302.6495
302.8281
302.9789
303.1315
303.2781
303.4136
303.5532
303.6795
303.8249
303.9505
304.1014
304.2225
304.3578
304.4755
304.6006
304.7044
304.8041
304.8996
304.9796
305.684
305.1448
305.2418
305.3169
305.4180
305.4902
305.5775
305.6539
305.7319
305.7906
305.8446
305.8989
305.9371
305.9869
306.219
306.801
306.1170
306.1849
306.2247
306.2736
306.3161
306.3625
306.3910
306.4116
306.4341
306.4395
306.4614
306.4682
306.4974
306.5050
306.5401
306.5544
306.5771
306.5927
306.6072
306.6085
306.6022
306.6028
306.5824
306.5779
306.5583
306.5652
306.5524
306.5670
306.5603
306.5640
306.5608
306.5595
306.5466
306.5233
306.5093
306.4736
306.4609
306.4322
306.4265
306.4038
306.4097
306.3980
306.3922
306.3818
306.3693
306.3544
306.3258
306.3063
306.2609
306.2413
306.2062
306.1964
306.1704
306.1666
306.1459
306.1314
306.1187
306.976
306.770
306.364
306.139
305.9644
305.9448
305.9070
305.8873
305.8566
305.8469
305.8307
305.8108
305.7951
305.7691
305.7498
305.7077
305.6875
305.6373
305.6122
305.5767
305.5564
305.5301
305.5165
305.5013
305.4810
305.4706
305.4418
305.4245
305.3848
305.3663
305.3205
305.2945
305.2593
305.2391
305.2182
305.1971
305.1835
305.1575
305.1486
305.1188
305.1102
305.712
305.514
305.120
304.9861
304.9557
304.9339
304.9184
304.8959
304.8891
304.8674
304.8680
304.8440
304.8385
304.8077
304.7905
304.7600
304.7333
304.7070
304.6804
304.6721
304.6481
304.6471
304.6243
304.6250
304.6067
304.6002
304.5743
304.5557
304.5278
304.4947
304.4725
304.4423
304.4343
304.4083
304.4127
304.3909
304.3892
304.3769
304.3710
304.3510
304.3267
304.3057
304.2688
304.2536
304.2252
304.2218
304.1985
304.2047
304.1917
304.1907
304.1878
304.1809
304.1659
304.1411
304.1309
304.940
304.826
304.538
304.489
304.313
304.355
304.294
304.220
304.189
304.57
303.9985
303.9687
303.9592
303.9218
303.9094
303.8825
303.8732
303.8602
303.8568
303.8520
303.8408
303.8428
303.8250
303.8229
303.7944
303.7885
303.7556
303.7402
303.7190
303.7086
303.7011
303.6926
303.6931
303.6773
303.6859
303.6692
303.6710
303.6453
303.6330
303.6083
303.5903
303.5729
303.5532
303.5483
303.5314
303.5378
303.5209
303.5269
303.5126
303.5123
303.4932
303.4766
303.4544
303.4267
303.4115
303.3873
303.3874
303.3673
303.3765
303.3648
303.3692
303.3642
303.3634
303.3497
303.3308
303.3204
303.2889
303.2796
303.2541
303.2545
303.2385
303.2523
303.2492
303.2476
303.2468
303.2422
303.2393
303.2139
303.2074
303.1752
303.1699
303.1473
303.1441
303.1345
303.1373
303.1384
303.1329
303.1351
303.1200
303.1214
303.964
303.937
303.616
303.502
303.334
303.291
303.257
303.201
303.239
303.152
303.273
303.148
303.224
303.14
302.9959
302.9759
302.9628
302.9466
302.9302
302.9295
302.9158
302.9260
302.9121
302.9201
302.9100
302.9140
302.8961
302.8828
302.8659
302.8396
302.8246
302.8014
302.8033
302.7843
302.7950
302.7839
302.7871
302.7832
302.7832
302.7704
302.7495
302.7391
302.7080
302.6997
302.6745
302.6759
302.6614
302.6734
302.6713
302.6704
302.6709
302.6651
302.6635
302.6387
302.6323
302.5975
302.5914
302.5741
302.5707
302.5592
302.5600
302.5611
302.5548
302.5624
302.5481
302.5494
302.5247
302.5220
302.4949
302.4813
302.4643
302.4563
302.4533
302.4445
302.4520
302.4379
302.4508
302.4398
302.4428
302.4209
302.4123
302.3919
302.3736
302.3596
302.3400
302.3410
302.3242
302.3385
302.3267
302.3332
302.3297
302.3339
302.3197
302.3038
302.2915
302.2626
302.2541
302.2289
302.2306
302.2132
302.2240
302.2170
302.2166
302.2144
302.2095
302.2019
302.1762
302.1692
302.1338
302.1269
302.1043
302.1019
302.920
302.971
302.974
302.906
302.957
302.829
302.880
302.648
302.614
302.311
302.209
302.33
301.9954
301.9907
301.9835
301.9926
301.9801
301.9917
301.9786
301.9833
301.9635
301.9582
301.9419
301.9261
301.9111
301.8936
301.8999
301.8878
301.9022
301.8910
301.9035
301.9021
301.9065
301.8970
301.8839
301.8731
301.8483
301.8437
301.8238
301.8297
301.8159
301.8339
301.8334
301.8403
301.8449
301.8442
301.8419
301.8237
301.8237
301.7921
301.7890
301.7735
301.7752
301.7700
301.7776
301.7820
301.7791
301.7870
301.7742
301.7797
301.7570
301.7587
301.7331
301.7261
301.7137
301.7070
301.7057
301.7015
301.7108
301.7019
301.7162
301.7059
301.7156
301.6995
301.6941
301.6803
301.6657
301.6560
301.6427
301.6488
301.6350
301.6544
301.6483
301.6603
301.6617
301.6696
301.6613
301.6492
301.6432
301.6173
301.6141
301.5946
301.6020
301.5910
301.6072
301.6079
301.6089
301.6158
301.6154
301.6168
301.5985
301.5986
301.5691
301.5688
301.5526
301.5549
301.5515
301.5598
301.5670
301.5649
301.5776
301.5682
301.5798
301.5638
301.5662
301.5436
301.5361
301.5264
301.5212
301.5240
301.5192
301.5317
301.5217
301.5384
301.5325
301.5401
301.5258
301.5208
301.5082
301.4919
301.4846
301.4642
301.4685
301.4537
301.4720
301.4659
301.4736
301.4729
301.4783
301.4734
301.4582
301.4512
301.4214
301.4195
301.4028
301.4115
301.4006
301.4151
301.4212
301.4242
301.4325
301.4287
301.4338
301.4139
301.4170
301.3897
301.3876
301.3750
301.3719
301.3703
301.3729
301.3808
301.3754
301.3875
301.3759
301.3842
301.3641
301.3635
301.3452
301.3334
301.3235
301.3127
301.3160
301.3052
301.3219
301.3126
301.3279
301.3228
301.3301
301.3209
301.3133
301.3041
301.2809
301.2756
301.2583
301.2672
301.2552
301.2752
301.2752
301.2819
301.2862
301.2902
301.2882
301.2712
301.2704
301.2415
301.2409
301.2245
301.2279
301.2197
301.2293
301.2348
301.2332
301.2405
301.2322
301.2390
301.2202
301.2237
301.1974
301.1921
301.1809
301.1796
301.1831
301.1784
301.1896
301.1839
301.2030
301.1966
301.2072
301.1925
301.1933
301.1819
301.1671
301.1589
301.1462
301.1554
301.1470
301.1685
301.1623
301.1738
301.1767
301.1864
301.1790
301.1662
301.1616
301.1364
301.1350
301.1157
301.1222
301.1114
301.1287
301.1283
301.1331
301.1428
301.1402
301.1414
301.1232
301.1252
301.975
301.968
301.844
301.864
301.848
301.911
301.1025
301.1005
301.1161
301.1091
301.1213
301.1056
301.1096
301.910
301.844
301.756
301.668
301.710
301.651
301.827
301.738
301.885
301.837
301.920
301.786
301.715
301.620
301.407
301.349
301.148
301.215
301.78
301.256
301.198
301.280
301.327
301.359
301.314
301.104
301.86
300.9797
300.9805
300.9632
300.9671
300.9613
300.9716
300.9784
300.9792
300.9901
300.9814
300.9903
300.9707
300.9729
300.9495
300.9439
300.9310
300.9278
300.9306
300.9263
300.9359
300.9282
300.9437
300.9344
300.9439
300.9294
300.9259
300.9114
300.8954
300.8864
300.8697
300.8783
300.8686
300.8858
300.8771
300.8883
300.8919
300.8976
300.8896
300.8737
300.8662
300.8402
300.8414
300.8232
300.8283
300.8195
300.8350
300.8404
300.8450
300.8533
300.8498
300.8560
300.8367
300.8387
300.8100
300.8088
300.7985
300.7973
300.7952
300.7958
300.8053
300.8014
300.8165
300.8072
300.8162
300.7984
300.7995
300.7861
300.7761
300.7648
300.7533
300.7596
300.7543
300.7733
300.7640
300.7776
300.7790
300.7905
300.7802
300.7707
300.7643
300.7403
300.7362
300.7165
300.7244
300.7116
300.7284
300.7260
300.7316
300.7378
300.7344
300.7319
300.7115
300.7129
300.6810
300.6773
300.6609
300.6622
300.6567
300.6611
300.6662
300.6629
300.6738
300.6601
300.6668
300.6451
300.6430
300.6208
300.6114
300.5955
300.5856
300.5887
300.5778
300.5924
300.5821
300.5952
300.5883
300.5970
300.5833
300.5729
300.5606
300.5352
300.5257
300.5052
300.5129
300.4974
300.5119
300.5059
300.5119
300.5159
300.5156
300.5090
300.4886
300.4869
300.4567
300.4561
300.4399
300.4437
300.4393
300.4475
300.4543
300.4526
300.4642
300.4559
300.4642
300.4428
300.4465
300.4240
300.4173
300.4072
300.4040
300.4074
300.4016
300.4171
300.4100
300.4277
300.4219
300.4325
300.4215
300.4174
300.4074
300.3889
300.3836
300.3686
300.3797
300.3685
300.3871
300.3847
300.3975
300.4056
300.4123
300.4096
300.3950
300.3965
300.3724
300.3757
300.3624
300.3717
300.3695
300.3862
300.3963
300.4013
300.4173
300.4130
300.4248
300.4098
300.4184
300.3985
300.3988
300.3931
300.3965
300.4039
300.4067
300.4251
300.4213
300.4426
300.4394
300.4553
300.4468
300.4470
300.4387
300.4253
300.4216
300.4107
300.4207
300.4116
300.4356
300.4344
300.4483
300.4559
300.4682
300.4642
300.4518
300.4523
300.4292
300.4335
300.4214
300.4318
300.4267
300.4487
300.4580
300.4658
300.4802
300.4786
300.4886
300.4729
300.4814
300.4576
300.4587
300.4488
300.4524
300.4585
300.4617
300.4745
300.4722
300.4926
300.4876
300.5031
300.4922
300.4927
300.4809
300.4726
300.4679
300.4585
300.4666
300.4592
300.4828
300.4796
300.4946
300.4964
300.5068
300.5028
300.4949
300.4916
300.4670
300.4668
300.4530
300.4667
300.4587
300.4760
300.4789
300.4891
300.5042
300.5039
300.5080
300.4907
300.4963
300.4708
300.4715
300.4614
300.4625
300.4628
300.4668
300.4785
300.4763
300.4919
300.4830
300.4977
300.4837
300.4846
300.4671
300.4598
300.4543
300.4449
300.4523
300.4432
300.4631
300.4590
300.4779
300.4774
300.4886
300.4816
300.4736
300.4711
300.4516
300.4503
300.4328
300.4442
300.4374
300.4597
300.4596
300.4682
300.4805
300.4822
300.4843
300.4644
300.4649
300.4379
300.4410
300.4257
300.4245
300.4222
300.4316
300.4395
300.4354
300.4491
300.4397
300.4522
300.4356
300.4365
300.4183
300.4134
300.4025
300.3947
300.4054
300.4017
300.4193
300.4120
300.4335
300.4329
300.4460
300.4391
300.4346
300.4305
300.4148
300.4140
300.3972
300.4092
300.4015
300.4266
300.4290
300.4388
300.4461
300.4490
300.4505
300.4365
300.4377
300.4105
300.4120
300.4003
300.4071
300.4031
300.4131
300.4212
300.4242
300.4405
300.4317
300.4421
300.4245
300.4320
300.4132
300.4087
300.3999
300.3952
300.4036
300.4021
300.4190
300.4134
300.4336
300.4337
300.4474
300.4382
300.4341
300.4266
300.4126
300.4078
300.3909
300.4026
300.3915
300.4129
300.4141
300.4270
300.4319
300.4379
300.4388
300.4253
300.4260
300.3982
300.3995
300.3865
300.3951
300.3923
300.4036
300.4125
300.4176
300.4313
300.4238
300.4341
300.4161
300.4208
300.3989
300.3950
300.3853
300.3841
300.3895
300.3890
300.4049
300.3993
300.4195
300.4151
300.4270
300.4179
300.4177
300.4060
300.3911
300.3868
300.3742
300.3858
300.3746
300.3962
300.3933
300.4070
300.4109
300.4180
300.4158
300.4018
300.4017
300.3749
300.3761
300.3614
300.3705
300.3674
300.3815
300.3899
300.3955
300.4089
300.4062
300.4166
300.3979
300.4034
300.3811
300.3817
300.3717
300.3723
300.3760
300.3759
300.3878
300.3846
300.4024
300.3941
300.4077
300.3931
300.3919
300.3792
300.3655
300.3580
300.3460
300.3560
300.3455
300.3643
300.3594
300.3734
300.3776
300.3856
300.3809
300.3697
300.3663
300.3414
300.3432
300.3250
300.3319
300.3258
300.3462
300.3531
300.3580
300.3661
300.3639
300.3746
300.3577
300.3609
300.3338
300.3342
300.3257
300.3277
300.3291
300.3295
300.3431
300.3396
300.3569
300.3474
300.3614
300.3479
300.3485
300.3362
300.3273
300.3199
300.3109
300.3209
300.3130
300.3376
300.3351
300.3489
300.3530
300.3672
300.3661
300.3567
300.3529
300.3309
300.3346
300.3218
300.3344
300.3285
300.3488
300.3553
300.3648
300.3760
300.3753
300.3832
300.3645
300.3697
300.3453
300.3475
300.3373
300.3403
300.3412
300.3471
300.3593
300.3560
300.3746
300.3677
300.3806
300.3681
300.3714
300.3577
300.3524
300.3462
300.3382
300.3499
300.3443
300.3660
300.3624
300.3807
300.3837
300.3981
300.3950
300.3886
300.3857
300.3632
300.3641
300.3507
300.3627
300.3554
300.3761
300.3801
300.3895
300.3993
300.4006
300.4020
300.3839
300.3887
300.3628
300.3614
300.3454
300.3498
300.3510
300.3590
300.3671
300.3645
300.3775
300.3689
300.3822
300.3665
300.3656
300.3478
300.3408
300.3327
300.3246
300.3308
300.3253
300.3444
300.3377
300.3552
300.3558
300.3670
300.3583
300.3525
300.3486
300.3284
300.3247
300.3074
300.3200
300.3101
300.3291
300.3296
300.3404
300.3486
300.3505
300.3529
300.3344
300.3365
300.3105
300.3137
300.2978
300.3034
300.3023
300.3105
300.3192
300.3203
300.3362
300.3280
300.3403
300.3242
300.3284
300.3121
300.3065
300.2976
300.2937
300.3021
300.2976
300.3157
300.3110
300.3289
300.3279
300.3413
300.3304
300.3259
300.3216
300.3042
300.3010
300.2844
300.2944
300.2852
300.3080
300.3089
300.3167
300.3230
300.3280
300.3286
300.3104
300.3098
300.2837
300.2869
300.2722
300.2770
300.2765
300.2869
300.2933
300.2960
300.3096
300.3011
300.3116
300.2941
300.2987
300.2795
300.2744
300.2637
300.2605
300.2675
300.2631
300.2788
300.2731
300.2919
300.2886
300.3002
300.2888
300.2836
300.2744
300.2582
300.2536
300.2359
300.2461
300.2348
300.2560
300.2565
300.2657
300.2722
300.2807
300.2812
300.2660
300.2662
300.2398
300.2424
300.2301
300.2389
300.2354
300.2496
300.2579
300.2625
300.2781
300.2718
300.2824
300.2649
300.2704
300.2515
300.2481
300.2380
300.2361
300.2425
300.2417
300.2566
300.2487
300.2689
300.2660
300.2818
300.2702
300.2666
300.2572
300.2436
300.2397
300.2239
300.2318
300.2232
300.2464
300.2451
300.2554
300.2596
300.2643
300.2615
300.2481
300.2488
300.2197
300.2193
300.2048
300.2149
300.2102
300.2250
300.2329
300.2386
300.2501
300.2442
300.2557
300.2405
300.2474
300.2222
300.2208
300.2123
300.2107
300.2157
300.2148
300.2298
300.2260
300.2447
300.2383
300.2542
300.2445
300.2419
300.2326
300.2218
300.2160
300.2031
300.2167
300.2100
300.2305
300.2262
300.2421
300.2518
300.2614
300.2569
300.2457
300.2474
300.2237
300.2272
300.2118
300.2222
300.2191
300.2361
300.2438
300.2481
300.2598
300.2557
300.2638
300.2443
300.2478
300.2236
300.2207
300.2114
300.2106
300.2113
300.2112
300.2247
300.2203
300.2382
300.2331
300.2449
300.2311
300.2309
300.2173
300.2062
300.2029
300.1920
300.2040
300.1963
300.2194
300.2174
300.2340
300.2433
300.2529
300.2504
300.2418
300.2421
300.2178
300.2221
300.2085
300.2168
300.2109
300.2304
300.2391
300.2442
300.2543
300.2513
300.2609
300.2443
300.2507
300.2247
300.2239
300.2160
300.2182
300.2211
300.2231
300.2373
300.2362
300.2560
300.2497
300.2637
300.2502
300.2500
300.2400
300.2320
300.2260
300.2156
300.2258
300.2190
300.2446
300.2424
300.2598
300.2631
300.2748
300.2755
300.2680
300.2656
300.2420
300.2444
300.2294
300.2395
300.2315
300.2508
300.2576
300.2647
300.2766
300.2763
300.2834
300.2673
300.2753
300.2512
300.2531
300.2439
300.2472
300.2521
300.2604
300.2726
300.2702
300.2906
300.2866
300.3029
300.2886
300.2932
300.2808
300.2730
300.2708
300.2626
300.2736
300.2673
300.2907
300.2861
300.3034
300.3090
300.3197
300.3117
300.3031
300.2984
300.2744
300.2744
300.2572
300.2674
300.2579
300.2773
300.2808
300.2889
300.2978
300.2987
300.3057
300.2890
300.2940
300.2677
300.2685
300.2579
300.2608
300.2615
300.2704
300.2832
300.2819
300.2999
300.2927
300.3077
300.2946
300.2987
300.2822
300.2723
300.2640
300.2572
300.2674
300.2580
300.2763
300.2701
300.2879
300.2865
300.2948
300.2865
300.2794
300.2759
300.2512
300.2487
300.2303
300.2403
300.2330
300.2525
300.2534
300.2593
300.2685
300.2709
300.2758
300.2581
300.2614
300.2352
300.2377
300.2261
300.2306
300.2281
300.2361
300.2487
300.2481
300.2633
300.2540
300.2644
300.2506
300.2555
300.2371
300.2290
300.2198
300.2125
300.2189
300.2123
300.2313
300.2236
300.2395
300.2419
300.2528
300.2413
300.2354
300.2314
300.2109
300.2075
300.1895
300.1990
300.1904
300.2120
300.2135
300.2213
300.2284
300.2303
300.2344
300.2172
300.2191
300.1910
300.1927
300.1802
300.1855
300.1864
300.1931
300.2007
300.2030
300.2204
300.2109
300.2200
300.2042
300.2082
300.1885
300.1814
300.1729
300.1658
300.1729
300.1669
300.1859
300.1779
300.1952
300.1931
300.2033
300.1939
300.1866
300.1804
300.1616
300.1587
300.1390
300.1500
300.1404
300.1588
300.1602
300.1692
300.1745
300.1755
300.1792
300.1616
300.1634
300.1340
300.1345
300.1200
300.1230
300.1205
300.1285
300.1347
300.1327
300.1483
300.1385
300.1467
300.1261
300.1309
300.1116
300.1018
300.928
300.858
300.897
300.839
300.1043
300.968
300.1126
300.1092
300.1223
300.1155
300.1111
300.1024
300.823
300.812
300.674
300.795
300.680
300.911
300.937
300.1045
300.1147
300.1190
300.1184
300.1032
300.1089
300.828
300.852
300.709
300.760
300.758
300.882
300.969
300.935
300.1096
300.1048
300.1171
300.995
300.1026
300.852
300.802
300.740
300.713
300.754
300.677
300.861
300.813
300.1020
300.1017
300.1143
300.1044
300.1021
300.957
300.790
300.777
300.626
300.766
300.693
300.936
300.967
300.1080
300.1160
300.1240
300.1263
300.1104
300.1116
300.846
300.895
300.792
300.861
300.828
300.957
300.1076
300.1084
300.1258
300.1210
300.1350
300.1206
300.1257
300.1047
300.1013
300.963
300.928
300.975
300.947
300.1124
300.1080
300.1281
300.1286
300.1421
300.1351
300.1318
300.1253
300.1107
300.1089
300.937
300.1070
300.1027
300.1295
300.1287
300.1408
300.1523
300.1587
300.1623
300.1484
300.1508
300.1234
300.1269
300.1170
300.1249
300.1231
300.1350
300.1449
300.1479
300.1647
300.1589
300.1685
300.1537
300.1626
300.1435
300.1394
300.1303
300.1281
300.1371
300.1353
300.1529
300.1484
300.1688
300.1674
300.1808
300.1735
300.1714
300.1638
300.1478
300.1451
300.1301
300.1409
300.1301
300.1513
300.1508
300.1626
300.1684
300.1741
300.1738
300.1593
300.1604
300.1325
300.1354
300.1230
300.1302
300.1261
300.1378
300.1463
300.1487
300.1631
300.1544
300.1653
300.1469
300.1515
300.1312
300.1276
300.1189
300.1155
300.1233
300.1218
300.1380
300.1338
300.1559
300.1538
300.1677
300.1578
300.1567
300.1485
300.1336
300.1305
300.1163
300.1267
300.1162
300.1389
300.1403
300.1538
300.1593
300.1649
300.1657
300.1521
300.1541
300.1294
300.1326
300.1190
300.1301
300.1280
300.1433
300.1544
300.1575
300.1701
300.1663
300.1789
300.1617
300.1655
300.1480
300.1457
300.1380
300.1381
300.1440
300.1436
300.1627
300.1590
300.1799
300.1772
300.1943
300.1863
300.1831
300.1754
300.1618
300.1580
300.1463
300.1601
300.1512
300.1755
300.1766
300.1893
300.1964
300.2045
300.2027
300.1893
300.1921
300.1683
300.1711
300.1555
300.1644
300.1618
300.1796
300.1879
300.1921
300.2074
300.2059
300.2175
300.2006
300.2067
300.1855
300.1864
300.1785
300.1787
300.1851
300.1832
300.1968
300.1925
300.2140
300.2094
300.2236
300.2117
300.2085
300.2001
300.1889
300.1841
300.1701
300.1824
300.1738
300.1982
300.1965
300.2095
300.2161
300.2251
300.2221
300.2088
300.2085
300.1848
300.1873
300.1709
300.1786
300.1734
300.1896
300.1993
300.2059
300.2156
300.2102
300.2228
300.2060
300.2096
300.1869
300.1871
300.1754
300.1762
300.1829
300.1829
300.1945
300.1904
300.2099
300.2034
300.2177
300.2034
300.2009
300.1921
300.1791
300.1717
300.1599
300.1694
300.1594
300.1813
300.1783
300.1911
300.1954
300.2041
300.2015
300.1892
300.1871
300.1621
300.1642
300.1492
300.1605
300.1538
300.1687
300.1753
300.1816
300.1944
300.1938
300.2027
300.1827
300.1892
300.1639
300.1628
300.1543
300.1559
300.1598
300.1622
300.1764
300.1707
300.1909
300.1861
300.1995
300.1866
300.1858
300.1750
300.1648
300.1592
300.1479
300.1578
300.1478
300.1726
300.1679
300.1821
300.1878
300.1960
300.1920
300.1816
300.1779
300.1508
300.1509
300.1347
300.1429
300.1363
300.1525
300.1559
300.1589
300.1700
300.1658
300.1729
300.1516
300.1558
300.1312
300.1315
300.1215
300.1204
300.1221
300.1262
300.1379
300.1328
300.1503
300.1429
300.1564
300.1445
300.1451
300.1294
300.1184
300.1123
300.1012
300.1108
300.1017
300.1225
300.1151
300.1305
300.1331
300.1425
300.1356
300.1240
300.1216
300.979
300.973
300.769
300.871
300.823
300.965
300.996
300.1058
300.1157
300.1127
300.1212
300.1023
300.1052
300.796
300.802
300.708
300.724
300.754
300.788
300.904
300.873
300.1083
300.1003
300.1138
300.1030
300.1058
300.947
300.822
300.774
300.690
300.817
300.722
300.938
300.916
300.1088
300.1122
300.1239
300.1187
300.1069
300.1054
300.825
300.816
300.628
300.730
300.679
300.865
300.915
300.1000
300.1101
300.1073
300.1148
300.960
300.1022
300.773
300.750
300.646
300.696
300.735
300.757
300.880
300.870
300.1059
300.1005
300.1159
300.1040
300.1062
300.962
300.863
300.795
300.692
300.803
300.706
300.940
300.903
300.1047
300.1068
300.1170
300.1120
300.1006
300.993
300.766
300.751
300.585
300.692
300.609
300.792
300.835
300.921
300.1014
300.989
300.1055
300.870
300.902
300.647
300.653
300.531
300.566
300.566
300.609
300.728
300.679
300.842
300.780
300.938
300.780
300.765
300.642
300.552
300.444
300.331
300.415
300.331
300.547
300.494
300.626
300.668
300.770
300.718
300.614
300.590
300.353
300.344
300.187
300.301
300.210
300.395
300.452
300.523
300.639
300.628
300.685
300.501
300.576
300.353
300.363
300.257
300.286
300.316
300.399
300.557
300.531
300.706
300.667
300.850
300.703
300.716
300.594
300.500
300.454
300.379
300.477
300.388
300.597
300.567
300.729
300.755
300.863
300.824
300.750
300.722
300.514
300.524
300.375
300.502
300.454
300.653
300.703
300.778
300.901
300.924
300.993
300.821
300.887
300.629
300.637
300.548
300.596
300.622
300.679
300.815
300.811
300.978
300.888
300.1054
300.918
300.940
300.799
300.708
300.634
300.548
300.658
300.561
300.746
300.706
300.877
300.904
300.990
300.919
300.820
300.798
300.587
300.573
300.389
300.481
300.425
300.632
300.690
300.752
300.845
300.835
300.904
300.747
300.786
300.485
300.487
300.389
300.422
300.401
300.435
300.529
300.511
300.668
300.578
300.704
300.555
300.572
300.414
300.310
300.223
300.136
300.227
300.144
300.363
300.315
300.463
300.477
300.606
300.543
300.431
300.391
300.198
300.211
300.39
300.129
300.55
300.268
300.315
300.400
300.505
300.504
300.554
300.361
300.419
300.166
300.163
300.50
300.79
300.102
300.171
300.283
300.267
300.466
300.394
300.558
300.407
300.432
300.315
300.252
300.154
300.70
300.196
300.150
300.360
300.304
300.461
300.501
300.621
300.584
300.494
300.457
300.259
300.275
300.118
300.245
300.190
300.386
300.465
300.562
300.661
300.677
300.765
300.598
300.651
300.423
300.414
300.309
300.389
300.398
300.443
300.556
300.552
300.744
300.675
300.810
300.655
300.680
300.528
300.451
300.386
300.302
300.392
300.301
300.512
300.473
300.652
300.657
300.754
300.720
300.633
300.596
300.373
300.363
300.200
300.306
300.223
300.396
300.429
300.527
300.603
300.600
300.642
300.428
300.471
300.229
300.242
300.68
300.81
300.101
300.168
300.247
300.207
300.375
300.291
300.410
300.257
300.273
300.107
300.28
299.9946
299.9854
299.9919
299.9826
300.39
299.9997
300.168
300.175
300.286
300.228
300.137
300.90
299.9880
299.9848
299.9656
299.9781
299.9709
299.9879
299.9914
299.9981
300.85
300.102
300.165
299.9971
300.7
299.9771
299.9817
299.9698
299.9732
299.9764
299.9829
299.9961
299.9978
300.142
300.50
300.210
300.78
300.121
299.9989
299.9905
299.9830
299.9779
299.9889
299.9815
300.28
300.2
300.200
300.230
300.354
300.317
300.231
300.215
300.23
300.30
299.9890
300.9
299.9945
300.157
300.208
300.306
300.395
300.408
300.472
300.306
300.360
300.122
300.138
300.21
300.92
300.110
300.166
300.295
300.301
300.485
300.407
300.563
300.431
300.467
300.346
300.281
300.191
300.122
300.234
300.172
300.381
300.307
300.478
300.495
300.618
300.563
300.476
300.449
300.265
300.253
300.80
300.197
300.109
300.319
300.367
300.442
300.506
300.526
300.603
300.412
300.459
300.214
300.223
300.101
300.160
300.204
300.273
300.381
300.365
300.552
300.499
300.641
300.480
300.506
300.406
300.347
300.255
300.182
300.281
300.222
300.434
300.399
300.567
300.583
300.733
300.681
300.598
300.561
300.357
300.358
300.208
300.325
300.223
300.419
300.460
300.571
300.667
300.663
300.715
300.537
300.592
300.345
300.352
300.220
300.270
300.308
300.372
300.482
300.475
300.650
300.586
300.731
300.569
300.604
300.466
300.382
300.316
300.261
300.347
300.262
300.497
300.445
300.603
300.632
300.769
300.707
300.639
300.625
300.406
300.415
300.279
300.405
300.331
300.550
300.590
300.683
300.779
300.815
300.854
300.675
300.754
300.505
300.522
300.432
300.482
300.481
300.596
300.747
300.720
300.904
300.856
300.1009
300.856
300.897
300.776
300.694
300.627
300.581
300.663
300.611
300.842
300.801
300.989
300.1012
300.1159
300.1072
300.1021
300.997
300.800
300.803
300.659
300.781
300.698
300.921
300.968
300.1044
300.1145
300.1184
300.1231
300.1060
300.1119
300.870
300.863
300.749
300.804
300.779
300.848
300.975
300.969
300.1107
300.1037
300.1146
300.970
300.1020
300.878
300.784
300.698
300.625
300.703
300.628
300.828
300.768
300.945
300.960
300.1077
300.993
300.929
300.892
300.689
300.691
300.522
300.625
300.564
300.786
300.826
300.929
300.1013
300.1027
300.1070
300.895
300.941
300.690
300.696
300.583
300.644
300.629
300.710
300.838
300.847
300.1008
300.956
300.1097
300.933
300.998
300.835
300.771
300.720
300.655
300.739
300.696
300.917
300.866
300.1044
300.1059
300.1198
300.1143
300.1105
300.1063
300.879
300.872
300.733
300.868
300.785
300.1013
300.1062
300.1168
300.1275
300.1320
300.1355
300.1203
300.1262
300.1033
300.1052
300.921
300.997
300.1003
300.1088
300.1197
300.1187
300.1336
300.1259
300.1397
300.1238
300.1253
300.1088
300.1030
300.968
300.908
300.976
300.917
300.1121
300.1090
300.1281
300.1286
300.1433
300.1374
300.1305
300.1242
300.1064
300.1055
300.888
300.1008
300.901
300.1110
300.1111
300.1196
300.1262
300.1283
300.1295
300.1112
300.1135
300.867
300.880
300.725
300.772
300.770
300.863
300.940
300.925
300.1061
300.974
300.1101
300.919
300.928
300.748
300.715
300.621
300.563
300.635
300.559
300.730
300.693
300.894
300.870
300.984
300.900
300.845
300.780
300.587
300.571
300.398
300.528
300.437
300.655
300.671
300.779
300.861
300.911
300.957
300.766
300.799
300.563
300.602
300.469
300.514
300.494
300.617
300.724
300.716
300.852
300.764
300.897
300.727
300.773
300.600
300.534
300.464
300.432
300.506
300.467
300.663
300.613
300.811
300.824
300.964
300.873
300.838
300.802
300.620
300.587
300.437
300.578
300.498
300.711
300.737
300.834
300.941
300.1018
300.1044
300.875
300.917
300.656
300.686
300.595
300.677
300.624
300.721
300.836
300.869
300.1033
300.976
300.1102
300.937
300.1006
300.849
300.793
300.715
300.705
300.789
300.762
300.957
300.899
300.1081
300.1091
300.1234
300.1122
300.1072
300.1044
300.878
300.819
300.636
300.762
300.664
300.878
300.897
300.981
300.1045
300.1073
300.1094
300.937
300.964
300.676
300.678
300.556
300.657
300.627
300.727
300.822
300.836
300.1003
300.953
300.1074
300.889
300.948
300.786
300.733
300.636
300.585
300.642
300.600
300.778
300.724
300.883
300.861
300.981
300.910
300.878
300.800
300.610
300.573
300.427
300.545
300.413
300.625
300.628
300.726
300.800
300.833
300.823
300.656
300.693
300.441
300.444
300.303
300.381
300.370
300.503
300.595
300.621
300.754
300.695
300.830
300.670
300.716
300.525
300.492
300.417
300.377
300.453
300.433
300.616
300.577
300.772
300.771
300.918
300.838
300.826
300.787
300.644
300.625
300.493
300.635
300.541
300.773
300.790
300.925
300.999
300.1083
300.1114
300.965
300.1002
300.769
300.818
300.668
300.766
300.763
300.875
300.970
300.996
300.1127
300.1039
300.1174
300.986
300.1003
300.798
300.760
300.642
300.595
300.647
300.582
300.730
300.671
300.840
300.784
300.899
300.802
300.736
300.643
300.468
300.429
300.255
300.384
300.285
300.511
300.506
300.620
300.692
300.757
300.767
300.600
300.622
300.377
300.398
300.249
300.324
300.294
300.407
300.483
300.511
300.652
300.574
300.689
300.527
300.592
300.388
300.322
300.240
300.231
300.285
300.260
300.427
300.352
300.552
300.547
300.675
300.561
300.548
300.487
300.333
300.286
300.134
300.271
300.191
300.441
300.440
300.535
300.613
300.686
300.689
300.553
300.592
300.298
300.330
300.210
300.308
300.288
300.405
300.509
300.571
300.737
300.678
300.790
300.643
300.723
300.551
300.512
300.438
300.444
300.543
300.530
300.705
300.681
300.886
300.869
300.1031
300.955
300.924
300.874
300.761
300.749
300.620
300.758
300.664
300.937
300.974
300.1116
300.1204
300.1282
300.1292
300.1172
300.1221
300.962
300.989
300.862
300.958
300.949
300.1085
300.1172
300.1220
300.1357
300.1327
300.1452
300.1265
300.1320
300.1140
300.1109
300.1011
300.1014
300.1082
300.1067
300.1237
300.1210
300.1416
300.1394
300.1564
300.1477
300.1446
300.1373
300.1245
300.1205
300.1081
300.1202
300.1085
300.1305
300.1311
300.1430
300.1492
300.1557
300.1538
300.1399
300.1424
300.1162
300.1178
300.1015
300.1100
300.1069
300.1227
300.1331
300.1341
300.1434
300.1384
300.1512
300.1312
300.1363
300.1135
300.1100
300.1020
300.1034
300.1080
300.1047
300.1218
300.1171
300.1362
300.1322
300.1455
300.1354
300.1338
300.1229
300.1075
300.1022
300.894
300.1010
300.888
300.1111
300.1103
300.1227
300.1287
300.1368
300.1350
300.1207
300.1216
300.967
300.989
300.839
300.917
300.874
300.1035
300.1101
300.1131
300.1243
300.1190
300.1289
300.1106
300.1177
300.923
300.875
300.805
300.806
300.854
300.833
300.986
300.949
300.1153
300.1100
300.1214
300.1104
300.1115
300.1029
300.878
300.819
300.681
300.793
300.717
300.973
300.958
300.1061
300.1124
300.1247
300.1238
300.1101
300.1110
300.870
300.917
300.767
300.863
300.830
300.966
300.1061
300.1117
300.1228
300.1168
300.1279
300.1105
300.1156
300.924
300.885
300.776
300.782
300.817
300.812
300.945
300.879
300.1067
300.1002
300.1146
300.1018
300.998
300.892
300.763
300.717
300.586
300.695
300.602
300.851
300.837
300.964
300.1010
300.1091
300.1094
300.977
300.946
300.698
300.737
300.594
300.715
300.674
300.836
300.917
300.979
300.1121
300.1097
300.1184
300.991
300.1067
300.860
300.831
300.726
300.746
300.793
300.796
300.962
300.928
300.1124
300.1083
300.1230
300.1110
300.1091
300.1009
300.892
300.840
300.734
300.838
300.717
300.951
300.938
300.1061
300.1108
300.1215
300.1178
300.1038
300.1067
300.808
300.798
300.641
300.763
300.743
300.898
300.978
300.1043
300.1171
300.1150
300.1280
300.1085
300.1131
300.920
300.911
300.809
300.823
300.853
300.853
300.1002
300.977
300.1156
300.1092
300.1257
300.1131
300.1129
300.1040
300.938
300.876
300.776
300.881
300.789
300.1036
300.1007
300.1154
300.1228
300.1317
300.1282
300.1174
300.1190
300.963
300.988
300.837
300.938
300.884
300.1087
300.1182
300.1216
300.1291
300.1294
300.1398
300.1202
300.1248
300.1013
300.985
300.885
300.894
300.913
300.926
300.1052
300.1025
300.1217
300.1147
300.1277
300.1156
300.1168
300.1047
300.923
300.839
300.729
300.853
300.747
300.957
300.929
300.1065
300.1128
300.1243
300.1182
300.1034
300.1018
300.805
300.798
300.598
300.661
300.589
300.786
300.840
300.864
300.962
300.930
300.1005
300.817
300.869
300.625
300.594
300.500
300.519
300.540
300.554
300.675
300.622
300.796
300.733
300.861
300.704
300.714
300.599
300.469
300.413
300.306
300.388
300.282
300.527
300.499
300.608
300.665
300.761
300.704
300.593
300.578
300.323
300.329
300.183
300.270
300.178
300.375
300.443
300.492
300.592
300.587
300.674
300.486
300.569
300.345
300.331
300.229
300.256
300.307
300.350
300.485
300.437
300.644
300.606
300.756
300.612
300.625
300.538
300.451
300.387
300.288
300.396
300.310
300.550
300.531
300.683
300.717
300.831
300.817
300.716
300.706
300.473
300.489
300.340
300.461
300.397
300.572
300.659
300.722
300.841
300.835
300.918
300.715
300.776
300.582
300.580
300.455
300.474
300.541
300.569
300.722
300.699
300.874
300.807
300.976
300.864
300.881
300.765
300.656
300.574
300.476
300.578
300.477
300.689
300.643
300.793
300.822
300.909
300.851
300.748
300.736
300.483
300.469
300.308
300.410
300.340
300.526
300.570
300.622
300.740
300.714
300.758
300.558
300.603
300.368
300.386
300.282
300.297
300.319
300.354
300.503
300.501
300.687
300.622
300.766
300.641
300.669
300.548
300.417
300.351
300.275
300.366
300.265
300.484
300.457
300.637
300.684
300.781
300.732
300.648
300.668
300.457
300.480
300.333
300.443
300.386
300.568
300.657
300.697
300.795
300.803
300.905
300.721
300.763
300.538
300.538
300.434
300.485
300.527
300.558
300.686
300.689
300.899
300.841
300.975
300.826
300.850
300.755
300.650
300.551
300.470
300.588
300.472
300.674
300.629
300.775
300.798
300.903
300.840
300.723
300.699
300.470
300.465
300.289
300.388
300.300
300.474
300.539
300.623
300.719
300.701
300.769
300.588
300.647
300.411
300.378
300.265
300.309
300.328
300.335
300.457
300.422
300.601
300.539
300.678
300.524
300.538
300.430
300.333
300.244
300.148
300.251
300.156
300.365
300.332
300.480
300.500
300.609
300.544
300.439
300.419
300.187
300.187
300.15
300.136
300.63
300.262
300.340
300.395
300.492
300.504
300.581
300.369
300.430
300.198
300.184
300.63
300.107
300.128
300.179
300.302
300.249
300.419
300.374
300.534
300.386
300.400
300.281
300.176
300.119
300.38
300.113
300.8
300.240
300.223
300.375
300.392
300.506
300.441
300.345
300.339
300.103
300.91
299.9939
300.67
300.4
300.169
300.224
300.295
300.404
300.407
300.464
300.267
300.328
300.105
300.101
299.9981
300.11
300.42
300.105
300.254
300.206
300.354
300.306
300.488
300.360
300.369
300.249
300.163
300.103
300.18
300.112
300.6
300.238
300.221
300.372
300.403
300.510
300.440
300.336
300.314
300.88
300.67
299.9894
300.9
299.9930
300.114
300.171
300.240
300.317
300.333
300.414
300.247
300.294
300.29
300.37
299.9959
299.9993
299.9988
300.16
300.136
300.118
300.297
300.218
300.360
300.202
300.212
300.68
299.9977
299.9890
299.9801
299.9913
299.9830
300.50
300.14
300.154
300.186
300.300
300.249
300.142
300.120
299.9906
299.9894
299.9713
299.9809
299.9727
299.9933
299.9995
300.46
300.140
300.147
300.213
300.33
300.91
299.9856
299.9864
299.9778
299.9815
299.9828
299.9868
299.9987
299.9968
300.150
300.66
300.205
300.66
300.94
299.9988
299.9872
299.9803
299.9727
299.9824
299.9739
299.9980
299.9956
300.117
300.153
300.283
300.256
300.161
300.127
299.9886
299.9911
299.9751
299.9858
299.9779
299.9997
300.75
300.125
300.230
300.259
300.354
300.187
300.267
300.47
300.51
299.9945
300.21
300.83
300.137
300.257
300.251
300.462
300.415
300.559
300.425
300.451
300.322
300.251
300.210
300.123
300.219
300.142
300.382
300.339
300.487
300.538
300.648
300.578
300.484
300.462
300.234
300.242
300.80
300.187
300.125
300.322
300.376
300.451
300.570
300.588
300.653
300.460
300.547
300.306
300.317
300.230
300.280
300.311
300.400
300.531
300.499
300.711
300.687
300.852
300.714
300.763
300.633
300.540
300.475
300.401
300.506
300.410
300.629
300.614
300.776
300.801
300.897
300.851
300.804
300.778
300.543
300.545
300.408
300.534
300.466
300.674
300.719
300.782
300.892
300.911
300.952
300.748
300.786
300.554
300.573
300.476
300.490
300.504
300.574
300.710
300.681
300.862
300.804
300.958
300.817
300.869
300.721
300.625
300.562
300.484
300.570
300.475
300.687
300.650
300.826
300.882
300.983
300.915
300.863
300.844
300.628
300.642
300.491
300.604
300.523
300.748
300.812
300.871
300.959
300.976
300.1040
300.855
300.908
300.645
300.644
300.530
300.579
300.603
300.654
300.760
300.749
300.949
300.874
300.990
300.844
300.874
300.741
300.657
300.571
300.473
300.571
300.498
300.704
300.628
300.800
300.837
300.950
300.882
300.787
300.744
300.517
300.529
300.359
300.451
300.359
300.541
300.588
300.672
300.745
300.736
300.786
300.601
300.646
300.378
300.369
300.254
300.293
300.282
300.323
300.429
300.405
300.563
300.484
300.607
300.437
300.444
300.299
300.217
300.125
300.19
300.84
300.4
300.231
300.148
300.278
300.293
300.410
300.328
300.243
300.211
299.9973
299.9959
299.9819
299.9925
299.9835
300.20
300.82
300.184
300.282
300.285
300.340
300.164
300.225
299.9979
299.9979
299.9857
299.9916
299.9934
299.9993
300.108
300.86
300.314
300.273
300.414
300.278
300.326
300.209
300.155
300.102
300.44
300.138
300.90
300.308
300.290
300.491
300.534
300.647
300.620
300.582
300.567
300.378
300.409
300.270
300.415
300.364
300.603
300.668
300.792
300.907
300.954
300.1017
300.868
300.928
300.697
300.740
300.632
300.677
300.670
300.761
300.899
300.887
300.1058
300.990
300.1138
300.1020
300.1049
300.881
300.807
300.728
300.659
300.753
300.671
300.870
300.824
300.998
300.1006
300.1109
300.1052
300.992
300.942
300.728
300.712
300.527
300.620
300.547
300.737
300.751
300.816
300.891
300.921
300.953
300.755
300.766
300.499
300.532
300.400
300.419
300.411
300.469
300.575
300.570
300.727
300.644
300.777
300.621
300.651
300.489
300.414
300.328
300.268
300.349
300.263
300.460
300.394
300.576
300.601
300.729
300.657
300.563
300.532
300.336
300.337
300.144
300.242
300.140
300.350
300.400
300.475
300.578
300.614
300.664
300.477
300.522
300.267
300.281
300.181
300.253
300.249
300.302
300.402
300.407
300.596
300.547
300.688
300.523
300.575
300.477
300.395
300.318
300.271
300.375
300.333
300.552
300.507
300.701
300.767
300.919
300.872
300.824
300.794
300.598
300.597
300.460
300.570
300.469
300.687
300.733
300.819
300.903
300.930
300.971
300.810
300.872
300.594
300.477
300.223
300.133
299.9984
299.9906
299.9820
299.9616
299.9564
299.9256
299.9124
299.8713
299.8468
299.8036
299.7642
299.7245
299.6854
299.6585
299.6151
299.5968
299.5529
299.5280
299.4872
299.4526
299.3994
299.3420
299.2864
299.2096
299.1528
299.769
299.234
298.9521
298.9015
298.8347
298.7670
298.7008
298.6176
298.5404
298.4343
298.3510
298.2353
298.1338
298.196
297.9164
297.8145
297.7005
297.6012
297.4776
297.3734
297.2455
297.1288
296.9858
296.8397
296.6919
296.5262
296.3778
296.2057
296.552
295.8838
295.7367
295.5736
295.4044
295.2397
295.518
294.8776
294.6723
294.4824
294.2697
294.627
293.8537
293.6363
293.4356
293.2123
293.178
292.7958
292.5831
292.3677
292.1427
291.9135
291.6582
291.4223
291.1594
290.9163
290.6592
290.4025
290.1570
289.8942
289.6581
289.3953
289.1478
288.8915
288.6265
288.3591
288.682
287.7997
287.4981
287.2147
286.9264
286.6358
286.3580
286.562
285.7877
285.4978
285.2186
284.9361
284.6339
284.3438
284.261
283.7325
283.4170
283.1040
282.7950
282.4721
282.1760
281.8607
281.5710
281.2701
280.9582
280.6652
280.3469
280.482
279.7241
279.4002
279.834
278.7395
278.4264
278.985
277.7794
277.4648
277.1349
276.8377
276.5187
276.2119
275.9023
275.5730
275.2616
274.9215
274.6004
274.2689
273.9232
273.6003
273.2607
272.9432
272.6191
272.2911
271.9867
271.6571
271.3479
271.307
270.7012
270.3857
270.411
269.7164
269.3808
269.331
268.7093
268.3670
268.437
267.7194
267.3864
267.857
266.7587
266.4445
266.1282
265.7924
265.4810
265.1400
264.8071
264.4791
264.1217
263.7969
263.4593
263.1228
262.8055
262.4637
262.1585
261.8380
261.5070
261.2038
260.8753
260.5545
260.2266
259.8778
259.5603
259.2168
258.8731
258.5493
258.2043
257.8817
257.5604
257.2260
256.9311
256.6083
256.2849
255.9773
255.6459
255.3375
255.72
254.6591
254.3424
253.9985
253.6605
253.3384
252.9962
252.6782
252.3585
252.233
251.7296
251.4098
251.881
250.7854
250.4569
250.1432
249.8208
249.4748
249.1601
248.8252
248.4755
248.1558
247.8173
247.4888
247.1795
246.8449
246.5426
246.2308
245.8989
245.5980
245.2855
244.9555
244.6492
244.3130
243.9769
243.6638
243.3140
242.9858
242.6613
242.3208
242.72
241.6931
241.3580
241.660
240.7501
240.4245
240.1289
239.8117
239.4871
239.1800
238.8434
238.5143
238.1982
237.8434
237.5169
237.1962
236.8577
236.5416
236.2301
235.8921
235.5990
235.2883
234.9581
234.6620
234.3547
234.236
233.7205
233.3910
233.477
232.7407
232.4028
232.546
231.7431
231.4111
231.793
230.7772
230.4531
230.1347
229.8470
229.5248
229.2052
228.9094
228.5901
228.2710
227.9647
227.6288
227.2977
226.9895
226.6417
226.3030
225.9898
225.6566
225.3290
225.270
224.7010
224.3855
224.971
223.7746
223.4547
223.1638
222.8499
222.5208
222.2140
221.8807
221.5450
221.2405
220.9035
220.5495
220.2399
219.9126
219.5722
219.2648
218.9541
218.6197
218.3299
218.246
217.6923
217.3913
217.943
216.7664
216.4525
216.1376
215.7973
215.4723
215.1621
214.8087
214.4656
214.1600
213.8315
213.4962
213.1932
212.8801
212.5445
212.2602
211.9598
211.6312
211.3298
211.336
210.7050
210.3873
210.840
209.7497
209.4128
209.1096
208.7758
208.4150
208.1046
207.7886
207.4512
207.1342
206.8297
206.5046
206.1911
205.9094
205.5885
205.2618
204.9773
204.6825
204.3524
204.410
203.7306
203.3938
203.628
202.7584
202.4195
202.638
201.7594
201.4416
201.987
200.7762
200.4752
200.1543
199.8340
199.5541
199.2431
198.9107
198.6157
198.3278
198.32
197.6799
197.3840
197.587
196.7124
196.4036
196.937
195.7337
195.3929
195.938
194.7734
194.4353
194.1246
193.8253
193.5005
193.1861
192.9071
192.5984
192.2718
191.9835
191.6946
191.3695
191.420
190.7503
190.4319
190.864
189.7703
189.4673
189.1214
188.7686
188.4699
188.1541
187.8097
187.4870
187.1973
186.8892
186.5554
186.2646
185.9847
185.6639
185.3400
185.597
184.7702
184.4406
184.1231
183.8330
183.5133
183.1651
182.8438
182.5430
182.2055
181.8492
181.5445
181.2341
180.8989
180.5693
180.2686
179.9686
179.6406
179.3287
179.599
178.7673
178.4356
178.1241
177.8453
177.5489
177.2168
176.9088
176.6178
176.2946
175.9479
175.6375
175.3404
175.21
174.6427
174.3334
174.301
173.7023
173.3681
173.637
172.7718
172.4558
172.1235
171.8467
171.5678
171.2417
170.9169
170.6360
170.3495
170.379
169.7117
169.4094
169.1063
168.7762
168.4300
168.1194
167.8183
167.4809
167.1186
166.8043
166.5024
166.1778
165.8355
165.5234
165.2370
164.9325
164.5971
164.2957
164.301
163.7394
163.4074
163.916
162.8170
162.5269
162.1985
161.8812
161.5926
161.2894
160.9603
160.6132
160.3048
160.91
159.6806
159.3132
158.9849
158.6956
158.3837
158.434
157.7276
157.4300
157.1344
156.8163
156.4844
156.2058
155.9380
155.6392
155.3087
155.32
154.7415
154.4551
154.1321
153.8134
153.5170
153.2221
152.9015
152.5545
152.2379
151.9506
151.6469
151.2893
150.9344
150.6312
150.3334
150.162
149.6693
149.3574
149.688
148.7756
148.4616
148.1287
147.8488
147.5866
147.2960
146.9572
146.6409
146.3689
146.922
145.8012
145.4608
145.1528
144.8690
144.5653
144.2384
143.8872
143.5702
143.2728
142.9638
142.6076
142.2496
141.9392
141.6529
141.3365
140.9978
140.6700
140.3670
140.803
139.7791
139.4499
139.1226
138.8549
138.5917
138.3028
137.9660
137.6511
137.3727
137.1021
136.8120
136.4812
136.1661
135.8707
135.5822
135.2658
134.9283
134.5858
134.2848
133.9923
133.6826
133.3306
132.9672
132.6522
132.3695
132.508
131.7330
131.3880
131.897
130.8000
130.5095
130.2062
129.8703
129.5567
129.2972
129.326
128.7458
128.4091
128.957
127.8128
127.5510
127.2591
126.9622
126.6218
126.3270
126.440
125.7455
125.4223
125.766
124.7376
124.4406
124.1501
123.8420
123.5103
123.1348
122.8054
122.5195
122.2257
121.9039
121.5756
121.2346
120.9425
120.6515
120.3626
120.618
119.7354
119.4109
119.1433
118.8904
118.6154
118.3209
117.9780
117.6729
117.4015
117.1422
116.8438
116.5580
116.2166
115.9149
115.6298
115.3454
115.328
114.7150
114.3628
114.358
113.7503
113.4593
113.1488
112.8217
112.4418
112.945
111.7964
111.5245
111.2082
110.8903
110.5560
110.2217
109.9445
109.6555
109.3674
109.640
108.7619
108.4283
108.1308
107.8793
107.6138
107.3323
107.393
106.6978
106.3941
106.1165
105.8697
105.5879
105.2890
104.9954
104.6469
104.3626
104.881
103.7929
103.4817
103.1666
102.8420
102.4886
102.1780
101.8997
101.6039
101.2967
100.9845
100.6156
100.2499
99.9480
99.6697
99.3753
99.444
98.7351
98.4049
98.624
97.7895
97.5063
97.2063
96.9108
96.6182
96.3106
95.9811
95.6901
95.4470
95.1889
94.9017
94.6177
94.3112
93.9630
93.6698
93.4063
93.1535
92.8783
92.5717
92.2914
91.9730
91.6282
91.3634
91.960
90.7914
90.4796
90.1606
89.8632
89.5167
89.1637
88.8616
88.5839
88.2770
87.9615
87.6491
87.3332
86.9485
86.5871
86.2930
86.193
85.7311
85.4117
85.836
84.7915
84.4616
84.1102
83.8365
83.5742
83.2764
82.9690
82.6724
82.3833
82.893
81.7519
81.4343
81.1699
80.9366
80.6689
80.3778
80.1061
79.8385
79.5159
79.1673
78.8804
78.6238
78.3763
78.1026
77.8005
77.4984
77.2373
76.9301
76.5687
76.2727
76.273
75.7529
75.4365
75.1214
74.8038
74.5047
74.2130
73.8566
73.5024
73.2102
72.9425
72.6572
72.3359
72.161
71.7145
71.4159
71.762
70.6721
70.3125
70.300
69.7541
69.4709
69.1669
68.8458
68.5213
68.2374
67.9702
67.6190
67.2520
66.9796
66.7585
66.5048
66.2081
65.9036
65.6256
65.3621
65.1092
64.8476
64.5280
64.2094
63.9525
63.7478
63.5404
63.2921
63.24
62.7370
62.5135
62.3028
62.633
61.7362
61.4267
61.2007
61.202
60.8270
60.6365
60.4180
60.1882
59.9572
59.7577
59.5899
59.3891
59.877
58.8209
58.6556
58.5350
58.3784
58.1695
57.9209
57.6991
57.5020
57.3395
57.1945
57.274
56.7761
56.5226
56.3489
56.2342
56.1225
55.9833
55.7861
55.5967
55.4442
55.3196
55.2189
55.910
54.8796
54.6263
54.4497
54.3691
54.3229
54.2403
54.1437
54.140
53.8778
53.7550
53.6635
53.6175
53.5695
53.4222
53.2313
53.1236
53.1284
53.1447
53.1066
53.236
52.9080
52.8295
52.7873
52.7630
52.7576
52.7385
52.6380
52.5264
52.4818
52.4999
52.5459
52.5810
52.5580
52.4843
52.4463
52.4580
52.4983
52.5304
52.4915
52.3681
52.2879
52.2978
52.3485
52.3906
52.4331
52.4246
52.3908
52.3582
52.3543
52.3975
52.4491
52.4102
52.2988
52.2515
52.3116
52.3982
52.4335
52.4206
52.3596
52.3137
52.2975
52.3100
52.3438
52.3761
52.3391
52.2368
52.1884
52.2198
52.2752
52.3159
52.3120
52.2517
52.2099
52.2116
52.2479
52.2865
52.2771
52.1598
52.431
52.176
52.646
52.1243
52.1728
52.1934
52.1755
52.1555
52.1567
52.1952
52.2603
52.2803
52.1977
52.1300
52.1707
52.2863
52.3732
52.4087
52.3751
52.3558
52.3787
52.4254
52.4860
52.5559
52.5776
52.5348
52.5195
52.5754
52.6843
52.7856
52.8529
52.8522
52.8507
52.8993
52.9843
53.615
53.962
53.277
52.9892
53.474
53.1475
53.2377
53.3154
53.3568
53.3709
53.3792
53.4190
53.4990
53.5816
53.5569
53.4788
53.4779
53.5767
53.6766
53.7236
53.7105
53.6726
53.6680
53.6861
53.7261
53.7820
53.8053
53.7361
53.6812
53.7063
53.7817
53.8443
53.8702
53.8347
53.7999
53.8073
53.8479
53.8950
53.9053
53.8056
53.7126
53.7153
53.7811
53.8511
53.9021
53.8981
53.8756
53.8694
53.8810
53.9280
53.9907
53.9702
53.8855
53.8661
53.9544
54.600
54.1192
54.1266
54.1027
54.1182
54.1579
54.2129
54.2854
54.3244
54.2879
54.2744
54.3285
54.4340
54.5356
54.5944
54.5813
54.5850
54.6377
54.7166
54.7884
54.8007
54.7286
54.7095
54.7731
54.8682
54.9503
55.259
55.455
55.461
55.503
55.1049
55.1930
55.2241
55.1501
55.1116
55.1874
55.2958
55.3514
55.3528
55.3159
55.3033
55.3130
55.3401
55.3897
55.4089
55.3361
55.2788
55.2922
55.3498
55.4068
55.4143
55.3646
55.3362
55.3462
55.3857
55.4230
55.4008
55.2869
55.2166
55.2353
55.3036
55.3521
55.3935
55.3815
55.3591
55.3474
55.3715
55.4340
55.4640
55.3824
55.3239
55.3683
55.4674
55.5379
55.5458
55.5026
55.5012
55.5302
55.5807
55.6441
55.6812
55.6331
55.6033
55.6461
55.7389
55.8377
55.8933
55.8796
55.8812
55.9322
56.121
56.816
56.725
55.9896
55.9754
56.400
56.1302
56.2055
56.2586
56.2698
56.2588
56.2684
56.3319
56.4074
56.3798
56.2977
56.2911
56.3740
56.4533
56.4808
56.4527
56.4223
56.4142
56.4179
56.4544
56.4983
56.4579
56.3760
56.3556
56.4030
56.4610
56.4888
56.4500
56.4137
56.4112
56.4334
56.4617
56.4574
56.3476
56.2517
56.2451
56.3024
56.3545
56.3891
56.3754
56.3497
56.3283
56.3478
56.4006
56.4219
56.3333
56.2743
56.3231
56.4189
56.4836
56.4899
56.4517
56.4509
56.4795
56.5247
56.5842
56.6058
56.5573
56.5344
56.5876
56.6735
56.7634
56.7956
56.7799
56.7853
56.8303
56.9014
56.9511
56.9030
56.8406
56.8636
56.9425
57.166
57.863
57.1116
57.1120
57.1149
57.1526
57.2202
57.2572
57.1785
57.1257
57.1800
57.2682
57.3113
57.3155
57.2699
57.2462
57.2385
57.2600
57.3080
57.2960
57.2074
57.1588
57.1932
57.2553
57.2916
57.2632
57.2185
57.2059
57.2286
57.2582
57.2582
57.1593
57.534
57.451
57.1012
57.1533
57.1974
57.1861
57.1586
57.1378
57.1469
57.2001
57.2163
57.1305
57.689
57.1202
57.2115
57.2708
57.2665
57.2297
57.2237
57.2432
57.2837
57.3367
57.3375
57.2885
57.2824
57.3444
57.4277
57.5109
57.5265
57.5051
57.5216
57.5878
57.6529
57.6693
57.5958
57.5522
57.5933
57.6622
57.7297
57.7872
57.7906
57.7769
57.7724
57.8165
57.8898
57.8758
57.7891
57.7719
57.8489
57.9251
57.9564
57.9191
57.8797
57.8652
57.8760
57.9120
57.9332
57.8646
57.7909
57.7805
57.8247
57.8659
57.8737
57.8314
57.8001
57.7990
57.8194
57.8370
57.7686
57.6439
57.5833
57.6123
57.6627
57.7033
57.7013
57.6702
57.6428
57.6363
57.6739
57.7144
57.6494
57.5670
57.5777
57.6629
57.7321
57.7449
57.6988
57.6923
57.7086
57.7440
57.7983
57.8069
57.7518
57.7238
57.7706
57.8522
57.9269
57.9412
57.9319
57.9422
57.9918
58.550
58.910
58.254
57.9700
58.33
58.822
58.1522
58.2071
58.2164
58.2072
58.2050
58.2474
58.3194
58.2961
58.2016
58.1875
58.2656
58.3402
58.3640
58.3269
58.2809
58.2682
58.2797
58.3184
58.3390
58.2633
58.1804
58.1749
58.2259
58.2758
58.2765
58.2208
58.1923
58.2018
58.2267
58.2366
58.1600
58.439
58.80
58.534
58.993
58.1355
58.1226
58.905
58.558
58.528
58.962
58.1214
58.418
57.9723
58.76
58.1012
58.1543
58.1479
58.1094
58.1061
58.1346
58.1840
58.2416
58.2296
58.1694
58.1572
58.2177
58.3078
58.3852
58.3868
58.3729
58.4001
58.4583
58.5159
58.5073
58.4331
58.4116
58.4685
58.5352
58.5958
58.6307
58.6216
58.6091
58.6273
58.6935
58.7419
58.6720
58.5990
58.6365
58.7197
58.7733
58.7763
58.7381
58.7131
58.7057
58.7183
58.7449
58.7096
58.6182
58.5785
58.6127
58.6628
58.6842
58.6345
58.5896
58.5834
58.6023
58.6278
58.5899
58.4653
58.3843
58.3980
58.4440
58.4797
58.4963
58.4712
58.4445
58.4371
58.4643
58.5026
58.4544
58.3618
58.3632
58.4444
58.5168
58.5242
58.4791
58.4691
58.4944
58.5255
58.5730
58.5829
58.5291
58.4936
58.5361
58.6201
58.7012
58.7183
58.6990
58.7132
58.7687
58.8313
58.8492
58.7763
58.7340
58.7717
58.8453
58.9040
58.9616
58.9643
58.9469
58.9497
59.31
59.547
58.9927
58.9054
58.9236
59.104
59.640
59.619
59.145
58.9843
58.9709
58.9897
59.276
58.9995
58.9076
58.8582
58.8880
58.9390
58.9688
58.9377
58.8892
58.8811
58.8954
58.9134
58.8796
58.7525
58.6651
58.6757
58.7207
58.7598
58.7613
58.7265
58.6886
58.6642
58.6899
58.7352
58.6848
58.5986
58.6042
58.6820
58.7452
58.7638
58.7257
58.7079
58.7245
58.7598
58.8055
58.8072
58.7448
58.7198
58.7704
58.8524
58.9225
58.9219
58.9038
58.9217
58.9721
59.300
59.279
58.9462
58.9136
58.9605
59.312
59.978
59.1371
59.1283
59.1127
59.1238
59.1871
59.2368
59.1684
59.937
59.1254
59.2074
59.2520
59.2428
59.1901
59.1644
59.1534
59.1696
59.2045
59.1671
59.771
59.386
59.715
59.1135
59.1301
59.831
59.466
59.398
59.611
59.754
59.273
58.9018
58.8350
58.8628
58.9100
58.9493
58.9529
58.9243
58.8904
58.8825
58.9116
58.9341
58.8579
58.7858
58.8179
58.9019
58.9589
58.9428
58.9009
58.8963
58.9151
58.9539
59.30
58.9831
58.9280
58.9240
58.9882
59.728
59.1381
59.1310
59.1152
59.1505
59.2141
59.2645
59.2387
59.1607
59.1535
59.2105
59.2711
59.3356
59.3596
59.3456
59.3339
59.3622
59.4271
59.4357
59.3463
59.3026
59.3669
59.4425
59.4737
59.4487
59.4111
59.3861
59.3895
59.4183
59.4276
59.3534
59.2792
59.2789
59.3242
59.3699
59.3654
59.3123
59.2795
59.2783
59.3011
59.2999
59.1944
59.826
59.627
59.1060
59.1397
59.1639
59.1396
59.1005
59.718
59.902
59.1435
59.1257
59.296
59.55
59.782
59.1523
59.1825
59.1410
59.1179
59.1251
59.1515
59.1915
59.2146
59.1567
59.1105
59.1470
59.2270
59.3097
59.3322
59.3133
59.3222
59.3715
59.4291
59.4415
59.3638
59.3205
59.3552
59.4205
59.4872
59.5391
59.5468
59.5347
59.5353
59.5867
59.6402
59.5774
59.5003
59.5215
59.5966
59.6425
59.6297
59.5739
59.5438
59.5310
59.5475
59.5756
59.5360
59.4439
59.4049
59.4360
59.4870
59.5065
59.4578
59.4166
59.4091
59.4215
59.4338
59.3691
59.2402
59.1830
59.2124
59.2543
59.2867
59.2784
59.2390
59.2017
59.1946
59.2272
59.2446
59.1572
59.848
59.1196
59.2036
59.2495
59.2310
59.1915
59.1878
59.2052
59.2433
59.2895
59.2603
59.2100
59.2184
59.2857
59.3691
59.4214
59.4064
59.4020
59.4398
59.4987
59.5386
59.4833
59.4155
59.4328
59.4980
59.5633
59.6187
59.6258
59.6087
59.6061
59.6468
59.7098
59.6882
59.6082
59.6014
59.6806
59.7420
59.7541
59.7127
59.6755
59.6626
59.6773
59.7060
59.6882
59.6009
59.5470
59.5589
59.6001
59.6290
59.5961
59.5518
59.5346
59.5509
59.5734
59.5386
59.4086
59.3219
59.3396
59.3883
59.4231
59.4229
59.3947
59.3582
59.3400
59.3691
59.4044
59.3389
59.2601
59.2747
59.3535
59.4117
59.4063
59.3628
59.3517
59.3677
59.3963
59.4385
59.4244
59.3663
59.3528
59.4099
59.4934
59.5582
59.5496
59.5359
59.5668
59.6232
59.6712
59.6419
59.5686
59.5678
59.6218
59.6818
59.7441
59.7638
59.7553
59.7409
59.7648
59.8258
59.8227
59.7322
59.6976
59.7640
59.8352
59.8513
59.8036
59.7581
59.7449
59.7463
59.7775
59.7780
59.6970
59.6341
59.6422
59.6859
59.7260
59.7014
59.6534
59.6295
59.6370
59.6536
59.6324
59.5068
59.4031
59.3950
59.4419
59.4816
59.4914
59.4622
59.4201
59.3960
59.4272
59.4668
59.4104
59.3167
59.3191
59.3963
59.4578
59.4626
59.4175
59.4082
59.4253
59.4544
59.4964
59.4855
59.4277
59.4060
59.4570
59.5402
59.6138
59.6135
59.5959
59.6190
59.6732
59.7134
59.6852
59.6038
59.5910
59.6406
59.6963
59.7599
59.7853
59.7763
59.7645
59.7882
59.8481
59.8563
59.7697
59.7331
59.7958
59.8637
59.8864
59.8468
59.8025
59.7786
59.7784
59.8014
59.8095
59.7261
59.6516
59.6537
59.6949
59.7323
59.7113
59.6623
59.6379
59.6429
59.6605
59.6433
59.5306
59.4313
59.4206
59.4571
59.5004
59.5242
59.4941
59.4500
59.4252
59.4494
59.4922
59.4538
59.3704
59.3621
59.4348
59.4938
59.5029
59.4574
59.4442
59.4558
59.4853
59.5265
59.5306
59.4770
59.4544
59.5061
59.5947
59.6723
59.6691
59.6552
59.6824
59.7427
59.7985
59.7801
59.6933
59.6747
59.7307
59.7952
59.8631
59.8930
59.8841
59.8692
59.8922
59.9500
59.9644
59.8872
59.8460
59.9036
59.9769
60.52
59.9681
59.9267
59.9063
59.9089
59.9422
59.9548
59.8795
59.8065
59.8110
59.8590
59.8955
59.8770
59.8316
59.8104
59.8149
59.8305
59.8185
59.6995
59.5947
59.5843
59.6222
59.6646
59.6826
59.6567
59.6276
59.6045
59.6232
59.6669
59.6163
59.5301
59.5356
59.6176
59.6800
59.6841
59.6389
59.6190
59.6308
59.6627
59.7098
59.6990
59.6348
59.6203
59.6740
59.7579
59.8275
59.8185
59.8005
59.8256
59.8815
59.9266
59.8915
59.8142
59.8003
59.8576
59.9222
59.9937
60.155
60.17
59.9836
60.130
60.802
60.755
59.9832
59.9526
60.154
60.844
60.1012
60.487
59.9948
59.9701
59.9687
59.9950
59.9895
59.9041
59.8338
59.8414
59.8848
59.9152
59.8886
59.8424
59.8196
59.8268
59.8469
59.8167
59.6880
59.5962
59.5982
59.6417
59.6715
59.6724
59.6390
59.5970
59.5744
59.5972
59.6331
59.5686
59.4773
59.4843
59.5608
59.6160
59.6075
59.5603
59.5434
59.5544
59.5862
59.6297
59.6159
59.5574
59.5420
59.6006
59.6862
59.7459
59.7305
59.7145
59.7412
59.7924
59.8354
59.7983
59.7226
59.7178
59.7748
59.8311
59.8904
59.9021
59.8819
59.8672
59.8950
59.9616
59.9503
59.8648
59.8511
59.9203
59.9846
59.9984
59.9527
59.9134
59.8921
59.8979
59.9251
59.9203
59.8382
59.7711
59.7838
59.8322
59.8609
59.8281
59.7818
59.7616
59.7655
59.7796
59.7497
59.6290
59.5405
59.5451
59.5847
59.6242
59.6363
59.6120
59.5755
59.5589
59.5947
59.6416
59.5772
59.4939
59.5111
59.5928
59.6474
59.6441
59.5978
59.5859
59.6006
59.6335
59.6797
59.6608
59.6049
59.5965
59.6539
59.7448
59.8124
59.8041
59.7992
59.8278
59.8822
59.9263
59.8809
59.8125
59.8211
59.8835
59.9435
60.36
60.227
60.64
59.9968
60.325
60.1021
60.771
59.9871
59.9741
60.447
60.1017
60.1130
60.660
60.308
60.212
60.276
60.564
60.374
59.9452
59.8959
59.9278
59.9758
59.9997
59.9561
59.9086
59.8961
59.9113
59.9320
59.8868
59.7603
59.6824
59.6912
59.7325
59.7638
59.7610
59.7281
59.6922
59.6863
59.7186
59.7352
59.6508
59.5838
59.6236
59.7018
59.7433
59.7248
59.6808
59.6752
59.6943
59.7356
59.7779
59.7427
59.6886
59.7014
59.7698
59.8519
59.8884
59.8637
59.8590
59.8959
59.9475
59.9720
59.9020
59.8356
59.8566
59.9241
59.9818
60.303
60.321
60.181
60.183
60.596
60.1184
60.707
59.9845
59.9947
60.712
60.1212
60.1170
60.625
60.314
60.171
60.279
60.540
60.131
59.9203
59.8810
59.9076
59.9432
59.9531
59.9003
59.8604
59.8507
59.8643
59.8758
59.8124
59.6908
59.6416
59.6645
59.6948
59.7231
59.7107
59.6767
59.6436
59.6419
59.6810
59.6860
59.5935
59.5350
59.5807
59.6575
59.6903
59.6525
59.6203
59.6191
59.6377
59.6799
59.7123
59.6634
59.6071
59.6227
59.6990
59.7864
59.8190
59.7992
59.8070
59.8503
59.9129
59.9313
59.8520
59.8068
59.8361
59.8962
59.9548
60.19
60.56
59.9834
59.9853
60.328
60.775
60.164
59.9419
59.9724
60.470
60.931
60.771
60.314
60.76
60.76
60.296
60.546
60.35
59.9190
59.8960
59.9322
59.9724
59.9706
59.9237
59.8909
59.8860
59.8967
59.9033
59.8199
59.6982
59.6587
59.6991
59.7393
59.7625
59.7383
59.6965
59.6609
59.6710
59.7156
59.7056
59.6077
59.5667
59.6286
59.7058
59.7410
59.7088
59.6836
59.6891
59.7177
59.7601
59.7764
59.7172
59.6795
59.7146
59.7899
59.8701
59.8860
59.8625
59.8709
59.9195
59.9728
59.9756
59.8982
59.8623
59.9058
59.9724
60.406
60.816
60.736
60.581
60.729
60.1280
60.1610
60.756
60.107
60.477
60.1163
60.1455
60.1199
60.788
60.586
60.519
60.728
60.886
60.155
59.9339
59.9164
59.9517
59.9907
59.9858
59.9305
59.8946
59.8998
59.9193
59.9199
59.8173
59.7118
59.6878
59.7269
59.7603
59.7812
59.7619
59.7212
59.6827
59.6950
59.7420
59.6999
59.6016
59.5882
59.6565
59.7203
59.7401
59.6918
59.6714
59.6819
59.7142
59.7632
59.7718
59.7121
59.6852
59.7256
59.8014
59.8765
59.8843
59.8692
59.8926
59.9481
59.9920
59.9681
59.8888
59.8727
59.9226
59.9812
60.391
60.638
60.498
60.313
60.554
60.1163
60.1251
60.324
59.9899
60.504
60.1232
60.1543
60.1210
60.763
60.565
60.560
60.825
60.887
60.104
59.9377
59.9363
59.9741
60.67
59.9779
59.9227
59.8968
59.9010
59.9226
59.9014
59.7809
59.6827
59.6836
59.7291
59.7626
59.7763
59.7470
59.7098
59.6824
59.7051
59.7460
59.6862
59.6073
59.6185
59.7041
59.7620
59.7667
59.7250
59.7104
59.7229
59.7532
59.7951
59.7820
59.7221
59.7100
59.7661
59.8515
59.9142
59.9021
59.8950
59.9264
59.9856
60.320
59.9853
59.9120
59.9161
59.9783
60.429
60.1073
60.1239
60.1100
60.927
60.1188
60.1801
60.1615
60.723
60.506
60.1196
60.1847
60.2011
60.1520
60.1128
60.960
60.1014
60.1340
60.1262
60.392
59.9820
60.7
60.517
60.770
60.387
59.9945
59.9819
59.9937
60.55
59.9585
59.8325
59.7586
59.7778
59.8229
59.8565
59.8486
59.8132
59.7764
59.7629
59.7950
59.8230
59.7407
59.6686
59.7032
59.7839
59.8299
59.8095
59.7767
59.7733
59.7911
59.8317
59.8738
59.8347
59.7842
59.7982
59.8710
59.9504
59.9852
59.9625
59.9625
60.65
60.630
60.918
60.182
59.9567
59.9776
60.424
60.1074
60.1584
60.1603
60.1440
60.1436
60.1931
60.2483
60.1976
60.1137
60.1271
60.2052
60.2500
60.2438
60.1991
60.1601
60.1447
60.1590
60.1900
60.1424
60.523
60.165
60.495
60.849
60.905
60.349
59.9908
59.9875
60.70
60.100
59.9311
59.8128
59.7691
59.7951
59.8326
59.8593
59.8359
59.7916
59.7566
59.7610
59.8046
59.7952
59.6915
59.6488
59.7047
59.7773
59.7985
59.7493
59.7189
59.7228
59.7449
59.7803
59.7971
59.7417
59.7061
59.7344
59.8127
59.8839
59.8944
59.8794
59.8875
59.9358
59.9882
59.9870
59.9031
59.8646
59.9045
59.9734
60.362
60.623
60.492
60.286
60.390
60.960
60.1231
60.324
59.9670
60.97
60.898
60.1312
60.1079
60.521
60.206
60.119
60.406
60.659
59.9989
59.9149
59.8964
59.9404
59.9833
59.9877
59.9332
59.8904
59.8892
59.9102
59.9083
59.7992
59.6768
59.6506
59.6934
59.7343
59.7539
59.7287
59.6922
59.6659
59.6794
59.7237
59.6977
59.6023
59.5824
59.6567
59.7266
59.7480
59.7084
59.6885
59.7062
59.7323
59.7727
59.7815
59.7239
59.6991
59.7397
59.8218
59.8987
59.9010
59.8856
59.9016
59.9552
60.96
59.9916
59.9080
59.8952
59.9576
60.270
60.914
60.1184
60.1052
60.932
60.1227
60.1911
60.1996
60.1106
60.763
60.1399
60.2085
60.2283
60.1829
60.1408
60.1228
60.1220
60.1516
60.1535
60.713
60.53
60.102
60.489
60.770
60.569
60.196
60.39
60.147
60.312
60.118
59.8940
59.8031
59.8029
59.8419
59.8748
59.8866
59.8597
59.8219
59.7984
59.8179
59.8535
59.7862
59.7022
59.7169
59.7985
59.8461
59.8384
59.7995
59.7924
59.8116
59.8465
59.8902
59.8682
59.8014
59.7942
59.8561
59.9432
60.81
59.9977
59.9846
60.161
60.730
60.1159
60.627
59.9866
59.9875
60.408
60.994
60.1607
60.1772
60.1643
60.1609
60.1953
60.2543
60.2224
60.1305
60.1283
60.2050
60.2610
60.2649
60.2178
60.1796
60.1633
60.1772
60.2113
60.1896
60.949
60.443
60.691
60.1104
60.1290
60.819
60.345
60.162
60.254
60.412
59.9779
59.8440
59.7762
59.7928
59.8366
59.8743
59.8642
59.8252
59.7932
59.7837
59.8210
59.8363
59.7479
59.6832
59.7246
59.8031
59.8438
59.8174
59.7834
59.7773
59.7899
59.8243
59.8483
59.7987
59.7484
59.7664
59.8362
59.9104
59.9399
59.9192
59.9197
59.9640
60.232
60.436
59.9674
59.9083
59.9343
59.9931
60.600
60.1061
60.1031
60.847
60.917
60.1422
60.1859
60.1143
60.377
60.619
60.1398
60.1833
60.1690
60.1224
60.882
60.700
60.893
60.1196
60.698
59.9818
59.9601
60.26
60.492
60.536
60.64
59.9714
59.9674
59.9775
59.9740
59.8877
59.7815
59.7401
59.7717
59.8057
59.8325
59.8165
59.7845
59.7488
59.7561
59.7925
59.7710
59.6744
59.6446
59.7081
59.7712
59.7993
59.7682
59.7458
59.7503
59.7696
59.8079
59.8285
59.7755
59.7436
59.7820
59.8638
59.9420
59.9531
59.9324
59.9447
59.9925
60.472
60.404
59.9538
59.9190
59.9627
60.282
60.951
60.1260
60.1149
60.1000
60.1167
60.1738
60.2010
60.1161
60.659
60.1222
60.1928
60.2201
60.1920
60.1432
60.1124
60.1102
60.1357
60.1557
60.786
59.9941
59.9838
60.220
60.576
60.418
59.9924
59.9668
59.9715
59.9875
59.9749
59.8604
59.7583
59.7431
59.7765
59.8117
59.8343
59.8210
59.7835
59.7577
59.7792
59.8208
59.7733
59.6859
59.6835
59.7551
59.8145
59.8195
59.7725
59.7584
59.7708
59.8009
59.8445
59.8344
59.7768
59.7618
59.8221
59.9079
59.9709
59.9615
59.9476
59.9764
60.372
60.849
60.454
59.9651
59.9569
60.183
60.794
60.1380
60.1513
60.1329
60.1207
60.1510
60.2097
60.1952
60.1031
60.831
60.1462
60.2047
60.2208
60.1809
60.1376
60.1205
60.1226
60.1509
60.1481
60.663
60.73
60.259
60.657
60.973
60.641
60.165
60.27
60.130
60.256
59.9745
59.8433
59.7625
59.7700
59.8124
59.8459
59.8412
59.8047
59.7682
59.7516
59.7793
59.8109
59.7376
59.6719
59.7031
59.7848
59.8295
59.8118
59.7705
59.7619
59.7860
59.8280
59.8613
59.8223
59.7634
59.7720
59.8417
59.9239
59.9695
59.9537
59.9495
59.9839
60.365
60.730
60.120
59.9489
59.9667
60.360
60.992
60.1550
60.1622
60.1482
60.1475
60.1910
60.2521
60.2106
60.1306
60.1446
60.2156
60.2653
60.2578
60.2121
60.1827
60.1635
60.1774
60.2088
60.1608
60.734
60.355
60.643
60.1046
60.1249
60.836
60.418
60.333
60.508
60.626
59.9918
59.8632
59.8157
59.8448
59.8858
59.9170
59.8995
59.8630
59.8314
59.8305
59.8694
59.8609
59.7628
59.7134
59.7671
59.8421
59.8707
59.8337
59.8026
59.8072
59.8317
59.8782
59.8962
59.8441
59.8014
59.8369
59.9156
59.9923
60.55
59.9858
59.9933
60.425
60.991
60.989
60.151
59.9719
60.128
60.815
60.1416
60.1704
60.1645
60.1415
60.1508
60.2075
60.2387
60.1559
60.942
60.1438
60.2226
60.2530
60.2216
60.1761
60.1489
60.1494
60.1719
60.1876
60.1196
60.386
60.229
60.579
60.909
60.831
60.302
59.9965
59.9980
60.122
59.9921
59.8796
59.7641
59.7464
59.7880
59.8237
59.8451
59.8195
59.7797
59.7547
59.7724
59.8237
59.7843
59.6891
59.6765
59.7439
59.8037
59.8120
59.7616
59.7408
59.7529
59.7836
59.8264
59.8250
59.7602
59.7295
59.7780
59.8537
59.9183
59.9149
59.9026
59.9217
59.9719
60.219
59.9935
59.9104
59.8950
59.9508
60.150
60.777
60.974
60.883
60.784
60.1043
60.1662
60.1649
60.711
60.370
60.1007
60.1579
60.1664
60.1181
60.750
60.557
60.561
60.837
60.851
60.131
59.9521
59.9560
59.9932
60.349
60.164
59.9620
59.9339
59.9388
59.9616
59.9358
59.8071
59.7157
59.7239
59.7693
59.8032
59.8053
59.7704
59.7310
59.7176
59.7466
59.7791
59.7065
59.6245
59.6382
59.7209
59.7682
59.7644
59.7243
59.7178
59.7328
59.7692
59.8197
59.8090
59.7496
59.7408
59.8027
59.8884
59.9417
59.9274
59.9174
59.9446
60.21
60.431
59.9970
59.9236
59.9267
59.9953
60.665
60.1268
60.1373
60.1267
60.1257
60.1611
60.2194
60.1817
60.968
60.940
60.1757
60.2348
60.2375
60.1973
60.1698
60.1611
60.1741
60.2072
60.1858
60.872
60.344
60.593
60.1012
60.1188
60.699
60.146
59.9974
60.99
60.278
59.9751
59.8510
59.7873
59.8095
59.8563
59.8899
59.8789
59.8477
59.8167
59.8092
59.8480
59.8615
59.7692
59.7111
59.7518
59.8228
59.8585
59.8335
59.8001
59.8005
59.8208
59.8547
59.8871
59.8421
59.7900
59.8031
59.8750
59.9570
59.9910
59.9791
59.9780
60.164
60.703
60.941
60.223
59.9712
59.9984
60.665
60.1329
60.1761
60.1741
60.1546
60.1602
60.2161
60.2516
60.1788
60.1049
60.1263
60.1994
60.2443
60.2295
60.1810
60.1538
60.1508
60.1701
60.1993
60.1423
60.525
60.273
60.651
60.1102
60.1122
60.630
60.209
60.178
60.298
60.334
59.9458
59.8213
59.7799
59.8120
59.8453
59.8678
59.8448
59.8048
59.7722
59.7777
59.8180
59.7873
59.6981
59.6807
59.7531
59.8239
59.8367
59.7915
59.7683
59.7785
59.8065
59.8496
59.8555
59.7885
59.7556
59.7967
59.8774
59.9529
59.9535
59.9340
59.9483
59.9979
60.488
60.364
59.9548
59.9285
59.9737
60.380
60.1006
60.1291
60.1242
60.1140
60.1337
60.1932
60.2063
60.1118
60.630
60.1199
60.1924
60.2195
60.1881
60.1451
60.1241
60.1208
60.1435
60.1508
60.683
59.9944
59.9924
60.351
60.683
60.502
59.9952
59.9664
59.9733
59.9903
59.9785
59.8657
59.7692
59.7600
59.8045
59.8471
59.8615
59.8351
59.7949
59.7715
59.7889
59.8305
59.7692
59.6731
59.6761
59.7544
59.8066
59.7953
59.7529
59.7407
59.7569
59.7933
59.8462
59.8335
59.7728
59.7611
59.8190
59.9032
59.9600
59.9455
59.9301
59.9529
60.82
60.560
60.181
59.9437
59.9472
60.90
60.745
60.1329
60.1437
60.1271
60.1158
60.1435
60.2004
60.1775
60.905
60.796
60.1547
60.2155
60.2291
60.1822
60.1490
60.1404
60.1548
60.1884
60.1752
60.839
60.305
60.479
60.875
60.1098
60.668
60.192
60.28
60.97
60.168
59.9667
59.8406
59.7701
59.7905
59.8359
59.8735
59.8693
59.8364
59.7955
59.7815
59.8166
59.8431
59.7639
59.6975
59.7311
59.8071
59.8520
59.8278
59.7875
59.7868
59.8072
59.8445
59.8818
59.8450
59.7923
59.8003
59.8587
59.9395
59.9724
59.9516
59.9489
59.9861
60.439
60.688
60.5
59.9473
59.9777
60.410
60.1048
60.1547
60.1529
60.1335
60.1325
60.1841
60.2335
60.1734
60.867
60.942
60.1711
60.2203
60.2153
60.1644
60.1269
60.1122
60.1311
60.1643
60.1161
60.217
59.9931
60.283
60.655
60.726
60.284
59.9891
59.9799
59.9867
59.9932
59.9123
59.7863
59.7493
59.7833
59.8216
59.8473
59.8305
59.7874
59.7472
59.7467
59.7897
59.7730
59.6718
59.6286
59.6867
59.7610
59.7906
59.7517
59.7164
59.7225
59.7501
59.7991
59.8296
59.7754
59.7338
59.7654
59.8394
59.9159
59.9270
59.9056
59.9132
59.9588
60.108
60.159
59.9387
59.9031
59.9465
60.159
60.788
60.1106
60.1078
60.989
60.1129
60.1653
60.1949
60.1118
60.517
60.954
60.1735
60.2081
60.1859
60.1482
60.1311
60.1308
60.1520
60.1700
60.940
60.96
59.9973
60.357
60.706
60.577
60.23
59.9684
59.9682
59.9856
59.9834
59.8772
59.7720
59.7552
59.7968
59.8375
59.8637
59.8406
59.8061
59.7763
59.7882
59.8302
59.7882
59.6910
59.6787
59.7587
59.8168
59.8219
59.7803
59.7610
59.7659
59.7955
59.8391
59.8402
59.7790
59.7533
59.8006
59.8779
59.9450
59.9392
59.9234
59.9436
59.9961
60.438
60.220
59.9476
59.9427
59.9977
60.588
60.1225
60.1435
60.1302
60.1117
60.1296
60.1861
60.1829
60.873
60.512
60.1134
60.1792
60.1990
60.1625
60.1191
60.984
60.1021
60.1283
60.1273
60.451
59.9837
59.9989
60.379
60.637
60.309
59.9752
59.9488
59.9563
59.9769
59.9497
59.8282
59.7374
59.7348
59.7801
59.8162
59.8256
59.7928
59.7522
59.7359
59.7598
59.7908
59.7165
59.6349
59.6538
59.7314
59.7777
59.7761
59.7340
59.7218
59.7379
59.7767
59.8219
59.8056
59.7453
59.7378
59.7984
59.8809
59.9293
59.9127
59.9001
59.9317
59.9860
60.251
59.9699
59.8978
59.9080
59.9729
60.421
60.1047
60.1175
60.1007
60.894
60.1284
60.1915
60.1590
60.681
60.614
60.1320
60.1914
60.1975
60.1502
60.1153
60.1074
60.1234
60.1561
60.1249
60.309
59.9767
59.9960
60.350
60.465
60.21
59.9600
59.9491
59.9664
59.9821
59.9294
59.8021
59.7388
59.7676
59.8133
59.8532
59.8518
59.8180
59.7759
59.7598
59.7955
59.8076
59.7147
59.6476
59.6897
59.7684
59.8104
59.7815
59.7464
59.7537
59.7734
59.8136
59.8507
59.8013
59.7556
59.7667
59.8349
59.9233
59.9589
59.9384
59.9451
59.9882
60.449
60.701
59.9992
59.9478
59.9781
60.425
60.1080
60.1550
60.1473
60.1305
60.1312
60.1776
60.2245
60.1498
60.715
60.995
60.1795
60.2267
60.2211
60.1826
60.1546
60.1445
60.1659
60.1955
60.1425
60.548
60.235
60.608
60.1016
60.1068
60.566
60.166
60.119
60.287
60.297
59.9308
59.8111
59.7810
59.8159
59.8562
59.8830
59.8562
59.8247
59.7949
59.8055
59.8471
59.8222
59.7254
59.6951
59.7650
59.8389
59.8638
59.8232
59.7988
59.8021
59.8301
59.8700
59.8789
59.8146
59.7757
59.8127
59.8931
59.9695
59.9731
59.9470
59.9578
60.102
60.712
60.630
59.9813
59.9548
59.9996
60.673
60.1349
60.1652
60.1587
60.1488
60.1595
60.2133
60.2265
60.1438
60.895
60.1329
60.1985
60.2230
60.1945
60.1524
60.1282
60.1246
60.1481
60.1591
60.826
60.36
59.9964
60.366
60.715
60.543
60.55
59.9781
59.9851
60.55
59.9890
59.8703
59.7694
59.7589
59.7987
59.8379
59.8547
59.8267
59.7850
59.7574
59.7766
59.8143
59.7550
59.6671
59.6672
59.7379
59.7966
59.8032
59.7574
59.7467
59.7671
59.8005
59.8409
59.8283
59.7639
59.7462
59.8001
59.8875
59.9490
59.9335
59.9206
59.9447
59.9984
60.387
59.9920
59.9097
59.9131
59.9679
60.275
60.905
60.1006
60.855
60.715
60.975
60.1582
60.1477
60.606
60.435
60.1156
60.1797
60.1912
60.1442
60.1117
60.985
60.1096
60.1356
60.1219
60.305
59.9708
59.9814
60.236
60.424
59.9986
59.9510
59.9374
59.9451
59.9588
59.9173
59.7923
59.7113
59.7280
59.7778
59.8191
59.8187
59.7829
59.7502
59.7373
59.7702
59.7961
59.7103
59.6364
59.6705
59.7496
59.7938
59.7731
59.7292
59.7285
59.7471
59.7791
59.8207
59.7889
59.7320
59.7400
59.8078
59.8828
59.9281
59.9115
59.9037
59.9397
59.9996
60.325
59.9720
59.9125
59.9356
60.46
60.664
60.1201
60.1241
60.1018
60.1005
60.1502
60.2011
60.1441
60.611
60.696
60.1520
60.2002
60.1918
60.1442
60.1148
60.1055
60.1219
60.1594
60.1199
60.290
59.9978
60.273
60.702
60.846
60.449
60.122
60.58
60.196
60.286
59.9507
59.8302
59.7800
59.8088
59.8470
59.8685
59.8522
59.8181
59.7839
59.7786
59.8225
59.8208
59.7237
59.6779
59.7293
59.8043
59.8406
59.8085
59.7773
59.7770
59.7988
59.8398
59.8686
59.8212
59.7794
59.8010
59.8757
59.9543
59.9774
59.9559
59.9582
59.9993
60.509
60.559
59.9730
59.9287
59.9705
60.376
60.996
60.1406
60.1407
60.1278
60.1328
60.1900
60.2216
60.1343
60.672
60.1127
60.1912
60.2268
60.2012
60.1514
60.1198
60.1170
60.1443
60.1617
60.925
60.59
59.9859
60.210
60.546
60.457
59.9885
59.9556
59.9525
59.9726
59.9708
59.8662
59.7604
59.7405
59.7782
59.8187
59.8422
59.8135
59.7661
59.7387
59.7452
59.7770
59.7390
59.6410
59.6203
59.6878
59.7547
59.7711
59.7252
59.7054
59.7117
59.7414
59.7823
59.7896
59.7263
59.7012
59.7466
59.8242
59.8947
59.8946
59.8813
59.9046
59.9615
60.113
59.9886
59.9031
59.8870
59.9409
60.32
60.643
60.952
60.805
60.619
60.804
60.1344
60.1411
60.498
60.110
60.756
60.1516
60.1765
60.1463
60.1087
60.870
60.874
60.1177
60.1231
60.395
59.9707
59.9723
60.160
60.491
60.260
59.9722
59.9444
59.9553
59.9763
59.9505
59.8272
59.7300
59.7247
59.7649
59.8024
59.8136
59.7840
59.7515
59.7354
59.7610
59.7957
59.7282
59.6483
59.6589
59.7413
59.8024
59.8064
59.7591
59.7439
59.7546
59.7887
59.8339
59.8125
59.7536
59.7439
59.8000
59.8772
59.9380
59.9246
59.9100
59.9403
59.9960
60.373
59.9918
59.9162
59.9202
59.9816
60.394
60.1023
60.1194
60.1025
60.897
60.1275
60.1890
60.1546
60.647
60.532
60.1273
60.1877
60.1976
60.1427
60.964
60.733
60.787
60.1096
60.969
60.45
59.9469
59.9580
59.9994
60.272
59.9881
59.9432
59.9239
59.9371
59.9600
59.9195
59.7909
59.7116
59.7214
59.7668
59.8011
59.7985
59.7629
59.7220
59.7070
59.7415
59.7653
59.6792
59.6057
59.6342
59.7156
59.7641
59.7419
59.7024
59.7020
59.7261
59.7662
59.8001
59.7620
59.7144
59.7224
59.7871
59.8691
59.9149
59.8982
59.8962
59.9325
59.9878
60.162
59.9517
59.8925
59.9144
59.9814
60.420
60.854
60.834
60.706
60.654
60.1089
60.1661
60.1212
60.320
60.418
60.1198
60.1750
60.1757
60.1276
60.1049
60.916
60.1091
60.1394
60.984
59.9979
59.9517
59.9813
60.253
60.337
59.9797
59.9360
59.9310
59.9444
59.9475
59.8765
59.7542
59.7091
59.7434
59.7863
59.8136
59.7986
59.7647
59.7306
59.7292
59.7695
59.7712
59.6773
59.6285
59.6901
59.7631
59.7931
59.7602
59.7259
59.7263
59.7585
59.8079
59.8317
59.7697
59.7217
59.7542
59.8299
59.9118
59.9347
59.9191
59.9310
59.9766
60.341
60.377
59.9588
59.9297
59.9797
60.530
60.1161
60.1534
60.1453
60.1277
60.1314
60.1897
60.2234
60.1446
60.809
60.1259
60.2032
60.2416
60.2186
60.1717
60.1487
60.1443
60.1666
60.1921
60.1288
60.398
60.250
60.690
60.1141
60.1086
60.578
60.310
60.365
60.498
60.434
59.9392
59.8231
59.8041
59.8395
59.8748
59.8932
59.8614
59.8193
59.7858
59.7939
59.8415
59.8057
59.7046
59.6851
59.7589
59.8282
59.8465
59.8082
59.7894
59.8003
59.8274
59.8752
59.8739
59.8170
59.7971
59.8402
59.9168
59.9856
59.9835
59.9600
59.9783
60.228
60.666
60.426
59.9669
59.9477
60.10
60.617
60.1229
60.1457
60.1326
60.1181
60.1402
60.1972
60.1976
60.1103
60.832
60.1473
60.2162
60.2369
60.1925
60.1507
60.1319
60.1320
60.1575
60.1548
60.638
59.9912
59.9914
60.345
60.668
60.393
59.9925
59.9675
59.9753
59.9913
59.9677
59.8428
59.7517
59.7582
59.8009
59.8420
59.8516
59.8216
59.7898
59.7667
59.7864
59.8146
59.7449
59.6628
59.6801
59.7602
59.8084
59.8020
59.7607
59.7520
59.7673
59.7982
59.8383
59.8137
59.7547
59.7525
59.8122
59.8997
59.9496
59.9337
59.9324
59.9651
60.239
60.608
59.9984
59.9296
59.9443
60.84
60.675
60.1175
60.1192
60.978
60.894
60.1229
60.1810
60.1492
60.587
60.529
60.1291
60.1899
60.1976
60.1479
60.1102
60.920
60.1004
60.1293
60.1080
60.183
59.9691
59.9946
60.367
60.534
60.91
59.9609
59.9524
59.9706
59.9831
59.9254
59.7975
59.7289
59.7494
59.7852
59.8179
59.8066
59.7765
59.7466
59.7392
59.7767
59.7883
59.7021
59.6446
59.6921
59.7683
59.8090
59.7823
59.7488
59.7477
59.7690
59.8053
59.8351
59.7863
59.7350
59.7521
59.8236
59.9079
59.9382
59.9118
59.9132
59.9561
60.163
60.436
59.9762
59.9197
59.9511
60.176
60.843
60.1320
60.1296
60.1119
60.1128
60.1686
60.2172
60.1537
60.780
60.1035
60.1769
60.2201
60.2023
60.1511
60.1221
60.1136
60.1328
60.1596
60.1120
60.257
59.9997
60.311
60.727
60.775
60.245
59.9863
59.9879
60.52
60.156
59.9303
59.8079
59.7647
59.8003
59.8485
59.8838
59.8609
59.8229
59.7858
59.7891
59.8315
59.8147
59.7162
59.6832
59.7438
59.8096
59.8316
59.7918
59.7705
59.7748
59.7981
59.8444
59.8633
59.8084
59.7771
59.8146
59.8958
59.9763
59.9793
59.9590
59.9742
60.216
60.759
60.656
59.9754
59.9417
59.9897
60.580
60.1129
60.1384
60.1297
60.1065
60.1269
60.1929
60.2156
60.1295
60.788
60.1346
60.2084
60.2380
60.2046
60.1591
60.1344
60.1368
60.1654
60.1741
60.939
60.145
60.90
60.471
60.853
60.685
60.197
59.9934
59.9979
60.141
60.0
59.8853
59.7791
59.7638
59.7979
59.8338
59.8534
59.8274
59.7919
59.7713
59.7934
59.8311
59.7788
59.6930
59.6914
59.7677
59.8330
59.8373
59.7806
59.7575
59.7655
59.7930
59.8318
59.8152
59.7555
59.7396
59.7926
59.8733
59.9389
59.9270
59.9112
59.9364
59.9940
60.428
60.89
59.9328
59.9200
59.9806
60.450
60.1080
60.1218
60.1037
60.934
60.1167
60.1792
60.1667
60.683
60.415
60.1115
60.1768
60.1975
60.1467
60.1052
60.903
60.967
60.1256
60.1177
60.287
59.9727
59.9891
60.393
60.674
60.338
59.9935
59.9769
59.9890
60.52
59.9652
59.8387
59.7564
59.7674
59.8085
59.8412
59.8368
59.7991
59.7616
59.7451
59.7779
59.8070
59.7276
59.6541
59.6866
59.7686
59.8171
59.8110
59.7710
59.7624
59.7799
59.8149
59.8582
59.8241
59.7737
59.7780
59.8405
59.9266
59.9735
59.9530
59.9446
59.9729
60.301
60.607
59.9905
59.9223
59.9403
59.9979
60.569
60.1216
60.1279
60.1071
60.985
60.1437
60.1990
60.1451
60.610
60.692
60.1430
60.1936
60.1943
60.1426
60.1076
60.971
60.1100
60.1337
60.932
60.38
59.9584
59.9805
60.197
60.304
59.9792
59.9336
59.9262
59.9383
59.9499
59.8880
59.7594
59.7031
59.7365
59.7823
59.8130
59.7985
59.7635
59.7387
59.7331
59.7718
59.7775
59.6814
59.6266
59.6741
59.7546
59.7954
59.7647
59.7307
59.7277
59.7455
59.7864
59.8159
59.7697
59.7239
59.7496
59.8281
59.9091
59.9339
59.9173
59.9207
59.9768
60.401
60.564
59.9738
59.9275
59.9652
60.326
60.938
60.1370
60.1275
60.1041
60.1121
60.1635
60.1993
60.1219
60.487
60.855
60.1668
60.2083
60.1881
60.1443
60.1243
60.1194
60.1338
60.1634
60.1076
60.185
59.9952
60.345
60.763
60.758
60.278
59.9995
59.9959
60.22
59.9971
59.9008
59.7792
59.7410
59.7813
59.8270
59.8534
59.8279
59.7868
59.7549
59.7690
59.8142
59.7824
59.6856
59.6672
59.7428
59.8097
59.8328
59.7884
59.7604
59.7616
59.7954
59.8515
59.8569
59.7970
59.7668
59.8160
59.8969
59.9693
59.9653
59.9476
59.9616
60.77
60.626
60.498
59.9670
59.9469
60.43
60.756
60.1427
60.1683
60.1637
60.1476
60.1720
60.2362
60.2478
60.1590
60.1231
60.1789
60.2399
60.2610
60.2261
60.1825
60.1578
60.1645
60.1947
60.1950
60.1146
60.528
60.550
60.1003
60.1384
60.1090
60.543
60.314
60.436
60.635
60.398
59.9119
59.8154
59.8230
59.8706
59.9093
59.9165
59.8827
59.8474
59.8221
59.8450
59.8783
59.8090
59.7197
59.7315
59.8053
59.8559
59.8511
59.8088
59.7985
59.8182
59.8526
59.8999
59.8748
59.8171
59.8154
59.8816
59.9656
60.138
59.9989
59.9905
60.241
60.861
60.1210
60.620
59.9891
60.30
60.683
60.1264
60.1786
60.1845
60.1697
60.1681
60.2026
60.2583
60.2197
60.1313
60.1314
60.2074
60.2618
60.2637
60.2083
60.1727
60.1658
60.1823
60.2138
60.1840
60.919
60.415
60.648
60.1051
60.1190
60.729
60.307
60.152
60.259
60.352
59.9758
59.8446
59.7828
59.8122
59.8523
59.8873
59.8750
59.8409
59.8079
59.8004
59.8400
59.8507
59.7612
59.6995
59.7417
59.8144
59.8502
59.8256
59.7926
59.7887
59.8094
59.8490
59.8741
59.8224
59.7736
59.7992
59.8698
59.9521
59.9790
59.9579
59.9605
60.24
60.559
60.690
59.9926
59.9466
59.9843
60.553
60.1106
60.1541
60.1554
60.1430
60.1547
60.2005
60.2406
60.1623
60.851
60.1132
60.1853
60.2213
60.2051
60.1505
60.1161
60.1035
60.1257
60.1569
60.1011
60.187
60.81
60.532
60.949
60.868
60.308
59.9993
59.9956
60.98
60.127
59.9201
59.7950
59.7610
59.8045
59.8482
59.8832
59.8651
59.8230
59.7932
59.8041
59.8501
59.8243
59.7255
59.6945
59.7579
59.8238
59.8421
59.8033
59.7818
59.7910
59.8207
59.8719
59.8887
59.8357
59.8143
59.8597
59.9413
60.130
60.147
59.9912

END