=~=~=~=~=~=~=~=~=~=~=~= PuTTY log 2025.04.16 15:21:32 =~=~=~=~=~=~=~=~=~=~=~=




Speed (Hz)
60.319
59.9180
59.8154
59.8071
59.8530
59.8993
59.9211
59.8943
59.8493
59.8220
59.8417
59.8737
59.8160
59.7213
59.7196
59.8014
59.8605
59.8665
59.8325
59.8195
59.8373
59.8746
59.9269
59.9192
59.8712
59.8597
59.9070
59.9865
60.432
60.369
60.215
60.472
60.1038
60.1475
60.1080
60.360
60.355
60.963
60.1617
60.2242
60.2430
60.2305
60.2155
60.2479
60.3064
60.2815
60.1891
60.1760
60.2498
60.3135
60.3256
60.2845
60.2490
60.2331
60.2457
60.2778
60.2587
60.1689
60.1087
60.1255
60.1668
60.1892
60.1407
60.878
60.665
60.803
60.938
60.324
59.9059
59.8384
59.8588
59.9054
59.9450
59.9410
59.9110
59.8764
59.8672
59.9026
59.9160
59.8249
59.7564
59.7906
59.8606
59.8976
59.8730
59.8370
59.8343
59.8563
59.8977
59.9353
59.8964
59.8400
59.8483
59.9133
59.9889
60.193
59.9965
59.9962
60.378
60.926
60.1064
60.344
59.9823
60.134
60.713
60.1345
60.1877
60.1892
60.1708
60.1651
60.2038
60.2370
60.1639
60.872
60.1129
60.1860
60.2237
60.2028
60.1541
60.1244
60.1185
60.1422
60.1711
60.1173
60.340
60.92
60.353
60.693
60.707
60.210
59.9809
59.9741
59.9847
59.9839
59.8938
59.7800
59.7390
59.7685
59.8126
59.8465
59.8259
59.7873
59.7560
59.7596
59.8001
59.7792
59.6792
59.6469
59.7150
59.7830
59.8005
59.7603
59.7416
59.7527
59.7810
59.8316
59.8526
59.8002
59.7624
59.7977
59.8755
59.9464
59.9515
59.9253
59.9353
59.9869
60.389
60.346
59.9481
59.9228
59.9676
60.300
60.983
60.1356
60.1334
60.1139
60.1259
60.1876
60.2095
60.1244
60.672
60.1167
60.1879
60.2122
60.1772
60.1365
60.1192
60.1202
60.1482
60.1604
60.901
60.108
60.8
60.402
60.781
60.613
60.110
59.9793
59.9776
59.9973
59.9924
59.8869
59.7876
59.7779
59.8277
59.8694
59.8864
59.8600
59.8196
59.7911
59.8085
59.8452
59.7908
59.6978
59.7002
59.7829
59.8438
59.8444
59.8012
59.7938
59.8100
59.8465
59.8998
59.8937
59.8338
59.8185
59.8704
59.9517
60.115
60.47
59.9902
60.223
60.807
60.1255
60.890
60.184
60.172
60.744
60.1367
60.1967
60.2124
60.2051
60.1932
60.2203
60.2787
60.2559
60.1628
60.1532
60.2279
60.2882
60.3009
60.2596
60.2233
60.2061
60.2194
60.2537
60.2356
60.1514
60.976
60.1166
60.1547
60.1746
60.1319
60.793
60.628
60.757
60.901
60.414
59.9101
59.8372
59.8570
59.9049
59.9413
59.9358
59.9136
59.8791
59.8643
59.9004
59.9133
59.8255
59.7623
59.8031
59.8806
59.9174
59.8949
59.8579
59.8551
59.8735
59.9154
59.9482
59.9045
59.8516
59.8655
59.9319
60.57
60.314
60.75
60.8
60.399
60.949
60.1141
60.444
59.9933
60.276
60.932
60.1586
60.2089
60.2130
60.1930
60.1919
60.2380
60.2770
60.2105
60.1285
60.1505
60.2224
60.2603
60.2446
60.1962
60.1621
60.1562
60.1804
60.2122
60.1637
60.772
60.454
60.758
60.1183
60.1278
60.726
60.285
60.255
60.428
60.414
59.9520
59.8342
59.8031
59.8441
59.8872
59.9200
59.9026
59.8649
59.8273
59.8240
59.8619
59.8335
59.7405
59.7087
59.7761
59.8445
59.8673
59.8323
59.8136
59.8283
59.8594
59.9089
59.9278
59.8765
59.8443
59.8824
59.9615
60.356
60.407
60.181
60.303
60.825
60.1322
60.1242
60.487
60.261
60.789
60.1435
60.2079
60.2369
60.2352
60.2194
60.2378
60.2951
60.3073
60.2168
60.1701
60.2271
60.2987
60.3258
60.2945
60.2565
60.2354
60.2390
60.2667
60.2783
60.2003
60.1240
60.1187
60.1534
60.1833
60.1567
60.986
60.645
60.675
60.804
60.579
59.9437
59.8556
59.8590
59.8984
59.9333
59.9414
59.9221
59.8862
59.8641
59.8895
59.9179
59.8485
59.7643
59.7801
59.8560
59.9059
59.8943
59.8511
59.8413
59.8587
59.8926
59.9372
59.9124
59.8545
59.8560
59.9154
59.9957
60.424
60.268
60.198
60.575
60.1162
60.1490
60.911
60.189
60.287
60.959
60.1652
60.2305
60.2466
60.2295
60.2180
60.2488
60.2993
60.2594
60.1695
60.1637
60.2413
60.2930
60.2909
60.2454
60.2094
60.1953
60.2161
60.2501
60.2205
60.1315
60.870
60.1105
60.1481
60.1636
60.1156
60.636
60.423
60.542
60.667
60.21
59.8713
59.8040
59.8309
59.8805
59.9205
59.9118
59.8748
59.8308
59.8168
59.8464
59.8563
59.7682
59.7054
59.7497
59.8217
59.8562
59.8255
59.7976
59.7969
59.8192
59.8633
59.9002
59.8594
59.8161
59.8329
59.9016
59.9717
59.9900
59.9626
59.9600
60.37
60.570
60.644
59.9881
59.9438
59.9775
60.458
60.1184
60.1703
60.1705
60.1533
60.1560
60.2060
60.2446
60.1698
60.938
60.1274
60.2066
60.2443
60.2254
60.1791
60.1469
60.1407
60.1638
60.1934
60.1335
60.522
60.271
60.542
60.838
60.769
60.190
59.9798
59.9771
59.9980
60.54
59.9103
59.7997
59.7774
59.8213
59.8619
59.8894
59.8678
59.8291
59.8027
59.8141
59.8512
59.8163
59.7175
59.6909
59.7594
59.8273
59.8461
59.8080
59.7877
59.7992
59.8367
59.8895
59.8980
59.8475
59.8274
59.8652
59.9396
60.105
60.126
59.9959
60.161
60.700
60.1209
60.1006
60.209
60.67
60.653
60.1373
60.2094
60.2407
60.2279
60.2054
60.2228
60.2787
60.2798
60.1809
60.1390
60.2027
60.2668
60.2895
60.2595
60.2239
60.2094
60.2153
60.2476
60.2571
60.1828
60.1121
60.1126
60.1516
60.1787
60.1523
60.972
60.667
60.692
60.852
60.610
59.9435
59.8546
59.8578
59.9011
59.9442
59.9552
59.9312
59.8929
59.8642
59.8898
59.9200
59.8546
59.7733
59.7876
59.8644
59.9124
59.9096
59.8711
59.8624
59.8819
59.9207
59.9617
59.9353
59.8768
59.8758
59.9341
60.126
60.591
60.373
60.257
60.516
60.1023
60.1365
60.840
60.202
60.356
60.1020
60.1658
60.2182
60.2223
60.2029
60.1922
60.2295
60.2784
60.2266
60.1264
60.1212
60.1949
60.2462
60.2426
60.1946
60.1590
60.1398
60.1522
60.1849
60.1548
60.635
60.141
60.323
60.701
60.836
60.358
59.9884
59.9737
59.9848
59.9998
59.9341
59.8100
59.7516
59.7730
59.8194
59.8570
59.8517
59.8137
59.7687
59.7522
59.7813
59.7841
59.6938
59.6369
59.6870
59.7615
59.7887
59.7616
59.7316
59.7355
59.7623
59.8128
59.8440
59.7963
59.7517
59.7746
59.8505
59.9292
59.9489
59.9226
59.9207
59.9606
60.142
60.309
59.9628
59.9187
59.9520
60.195
60.859
60.1318
60.1346
60.1178
60.1186
60.1652
60.2006
60.1294
60.548
60.861
60.1649
60.2059
60.1948
60.1445
60.1139
60.1099
60.1330
60.1633
60.1095
60.187
59.9868
60.175
60.497
60.471
59.9925
59.9525
59.9459
59.9626
59.9645
59.8760
59.7617
59.7356
59.7748
59.8167
59.8450
59.8291
59.7912
59.7556
59.7669
59.8115
59.7867
59.6928
59.6649
59.7370
59.8026
59.8178
59.7769
59.7590
59.7672
59.8003
59.8501
59.8604
59.8066
59.7718
59.8067
59.8869
59.9632
59.9722
59.9538
59.9636
60.132
60.693
60.565
59.9815
59.9680
60.234
60.910
60.1557
60.1829
60.1751
60.1519
60.1649
60.2172
60.2226
60.1308
60.815
60.1375
60.2107
60.2374
60.2060
60.1626
60.1389
60.1425
60.1755
60.1883
60.1169
60.432
60.440
60.837
60.1126
60.865
60.281
59.9957
59.9998
60.217
60.23
59.8792
59.7886
59.7909
59.8401
59.8784
59.8847
59.8502
59.8113
59.7878
59.8107
59.8461
59.7883
59.6957
59.6970
59.7738
59.8253
59.8217
59.7823
59.7742
59.7904
59.8268
59.8743
59.8618
59.8073
59.7995
59.8489
59.9220
59.9709
59.9521
59.9388
59.9637
60.151
60.471
59.9984
59.9320
59.9436
60.40
60.719
60.1316
60.1502
60.1364
60.1235
60.1541
60.2084
60.1775
60.868
60.791
60.1477
60.2021
60.2082
60.1650
60.1330
60.1134
60.1225
60.1546
60.1417
60.542
59.9966
60.98
60.513
60.719
60.267
59.9756
59.9593
59.9754
59.9919
59.9510
59.8333
59.7641
59.7877
59.8371
59.8773
59.8737
59.8401
59.8060
59.7927
59.8250
59.8341
59.7480
59.6816
59.7178
59.7927
59.8303
59.8078
59.7738
59.7764
59.8015
59.8440
59.8829
59.8448
59.7959
59.8065
59.8747
59.9568
59.9883
59.9672
59.9662
60.87
60.699
60.918
60.190
59.9628
59.9914
60.627
60.1316
60.1797
60.1841
60.1681
60.1648
60.2082
60.2500
60.1799
60.991
60.1183
60.1939
60.2422
60.2384
60.1949
60.1710
60.1646
60.1855
60.2211
60.1724
60.891
60.587
60.821
60.1175
60.1164
60.648
60.236
60.182
60.311
60.324
59.9495
59.8304
59.7898
59.8270
59.8722
59.9032
59.8927
59.8565
59.8154
59.8164
59.8606
59.8399
59.7381
59.7035
59.7663
59.8352
59.8553
59.8159
59.7928
59.8036
59.8346
59.8844
59.9004
59.8471
59.8120
59.8486
59.9213
59.9847
59.9879
59.9646
59.9732
60.206
60.756
60.704
59.9924
59.9669
60.179
60.850
60.1577
60.1975
60.1979
60.1825
60.1939
60.2458
60.2538
60.1683
60.1176
60.1678
60.2370
60.2680
60.2358
60.1909
60.1646
60.1642
60.2008
60.2225
60.1507
60.757
60.706
60.1062
60.1377
60.1180
60.689
60.393
60.436
60.628
60.498
59.9377
59.8404
59.8301
59.8769
59.9184
59.9348
59.9134
59.8760
59.8422
59.8511
59.8792
59.8195
59.7303
59.7325
59.8078
59.8614
59.8616
59.8217
59.8069
59.8229
59.8615
59.9095
59.9005
59.8397
59.8251
59.8783
59.9560
60.85
59.9936
59.9748
59.9956
60.532
60.930
60.474
59.9741
59.9768
60.351
60.1021
60.1688
60.1864
60.1696
60.1550
60.1870
60.2459
60.2164
60.1244
60.1123
60.1896
60.2482
60.2542
60.2136
60.1773
60.1643
60.1768
60.2174
60.2012
60.1096
60.519
60.629
60.963
60.1161
60.749
60.218
60.19
60.141
60.279
59.9824
59.8586
59.7952
59.8124
59.8604
59.9039
59.9038
59.8734
59.8362
59.8263
59.8641
59.8787
59.7949
59.7285
59.7675
59.8496
59.8906
59.8680
59.8312
59.8248
59.8478
59.8970
59.9378
59.8964
59.8450
59.8619
59.9321
60.133
60.490
60.285
60.264
60.711
60.1313
60.1572
60.926
60.451
60.729
60.1461
60.2148
60.2665
60.2694
60.2496
60.2545
60.3016
60.3376
60.2643
60.1831
60.2086
60.2854
60.3233
60.3104
60.2708
60.2459
60.2386
60.2596
60.2887
60.2383
60.1557
60.1284
60.1555
60.1913
60.1949
60.1446
60.1097
60.1041
60.1135
60.1087
60.151
59.9027
59.8801
59.9207
59.9533
59.9732
59.9533
59.9124
59.8785
59.8886
59.9280
59.8956
59.7983
59.7748
59.8446
59.9109
59.9275
59.8955
59.8769
59.8865
59.9183
59.9703
59.9826
59.9289
59.8971
59.9369
60.134
60.855
60.873
60.625
60.721
60.1225
60.1718
60.1475
60.682
60.516
60.1090
60.1795
60.2483
60.2750
60.2656
60.2514
60.2711
60.3242
60.3141
60.2173
60.1785
60.2450
60.3142
60.3352
60.2890
60.2456
60.2247
60.2277
60.2550
60.2541
60.1693
60.1055
60.1023
60.1351
60.1586
60.1240
60.671
60.411
60.513
60.706
60.417
59.9194
59.8338
59.8410
59.8858
59.9254
59.9366
59.9052
59.8612
59.8386
59.8616
59.8857
59.8052
59.7187
59.7373
59.8153
59.8630
59.8481
59.8103
59.8060
59.8251
59.8642
59.9124
59.8849
59.8250
59.8237
59.8810
59.9606
60.111
59.9912
59.9746
60.142
60.760
60.1072
60.569
59.9958
60.91
60.730
60.1403
60.1918
60.1994
60.1864
60.1768
60.2138
60.2615
60.2105
60.1185
60.1238
60.2019
60.2552
60.2575
60.2143
60.1886
60.1818
60.1945
60.2287
60.1994
60.1083
60.720
60.944
60.1363
60.1476
60.981
60.531
60.443
60.561
60.642
60.23
59.8785
59.8225
59.8489
59.8961
59.9304
59.9173
59.8837
59.8508
59.8471
59.8904
59.8935
59.8023
59.7479
59.8022
59.8785
59.9121
59.8866
59.8585
59.8598
59.8857
59.9301
59.9599
59.9133
59.8791
59.9054
59.9760
60.479
60.609
60.400
60.497
60.989
60.1538
60.1559
60.794
60.469
60.894
60.1573
60.2270
60.2741
60.2727
60.2544
60.2636
60.3190
60.3435
60.2540
60.1899
60.2360
60.3053
60.3314
60.3024
60.2587
60.2358
60.2347
60.2598
60.2792
60.2122
60.1295
60.1174
60.1479
60.1800
60.1629
60.1053
60.704
60.741
60.942
60.810
59.9718
59.8677
59.8630
59.9083
59.9449
59.9611
59.9368
59.8975
59.8673
59.8777
59.9098
59.8583
59.7611
59.7496
59.8210
59.8709
59.8780
59.8412
59.8236
59.8363
59.8718
59.9225
59.9214
59.8640
59.8496
59.8968
59.9682
60.252
60.139
59.9916
60.73
60.563
60.1006
60.702
59.9988
59.9926
60.478
60.1115
60.1774
60.1971
60.1779
60.1548
60.1770
60.2338
60.2196
60.1269
60.1071
60.1757
60.2356
60.2456
60.2058
60.1700
60.1463
60.1564
60.1960
60.1908
60.1000
60.379
60.476
60.805
60.982
60.586
60.33
59.9785
59.9862
60.8
59.9635
59.8443
59.7688
59.7816
59.8227
59.8648
59.8760
59.8511
59.8105
59.7917
59.8184
59.8387
59.7543
59.6775
59.7070
59.7839
59.8213
59.8066
59.7728
59.7705
59.7905
59.8265
59.8659
59.8341
59.7803
59.7805
59.8402
59.9185
59.9537
59.9328
59.9308
59.9640
60.194
60.510
59.9932
59.9365
59.9585
60.180
60.824
60.1454
60.1569
60.1444
60.1370
60.1719
60.2183
60.1672
60.718
60.716
60.1452
60.1967
60.1938
60.1434
60.1110
60.956
60.1126
60.1492
60.1216
60.375
59.9992
60.253
60.606
60.730
60.292
59.9844
59.9702
59.9851
59.9930
59.9184
59.7924
59.7458
59.7805
59.8273
59.8608
59.8488
59.8090
59.7678
59.7622
59.7975
59.7877
59.6869
59.6331
59.6864
59.7644
59.7983
59.7713
59.7422
59.7414
59.7704
59.8238
59.8525
59.8061
59.7688
59.7924
59.8644
59.9382
59.9547
59.9286
59.9288
59.9718
60.190
60.291
59.9592
59.9226
59.9628
60.316
60.1007
60.1413
60.1409
60.1227
60.1289
60.1796
60.2099
60.1326
60.661
60.1020
60.1828
60.2233
60.1997
60.1560
60.1319
60.1348
60.1625
60.1837
60.1209
60.338
60.86
60.384
60.672
60.599
60.115
59.9762
59.9721
59.9878
59.9833
59.8867
59.7806
59.7637
59.8036
59.8518
59.8838
59.8666
59.8232
59.7891
59.7973
59.8326
59.7954
59.7012
59.6789
59.7456
59.8049
59.8149
59.7726
59.7555
59.7735
59.8080
59.8527
59.8619
59.8027
59.7725
59.8108
59.8891
59.9601
59.9657
59.9447
59.9573
60.100
60.567
60.345
59.9576
59.9412
59.9989
60.706
60.1350
60.1560
60.1464
60.1293
60.1475
60.2014
60.2046
60.1137
60.725
60.1286
60.1955
60.2131
60.1778
60.1408
60.1227
60.1286
60.1590
60.1688
60.987
60.320
60.384
60.781
60.1065
60.760
60.244
59.9995
60.42
60.165
59.9828
59.8599
59.7767
59.7806
59.8254
59.8664
59.8812
59.8585
59.8188
59.7995
59.8246
59.8534
59.7794
59.6959
59.7221
59.8076
59.8552
59.8502
59.8158
59.8115
59.8253
59.8624
59.9161
59.9038
59.8492
59.8413
59.8972
59.9738
60.258
60.176
60.111
60.439
60.999
60.1331
60.846
60.233
60.419
60.1107
60.1767
60.2385
60.2560
60.2412
60.2331
60.2753
60.3327
60.2891
60.2045
60.2056
60.2850
60.3341
60.3286
60.2822
60.2522
60.2418
60.2597
60.2969
60.2624
60.1701
60.1257
60.1550
60.1943
60.2084
60.1587
60.1154
60.1073
60.1271
60.1382
60.690
59.9432
59.8906
59.9218
59.9671
60.49
59.9967
59.9629
59.9217
59.9155
59.9519
59.9404
59.8400
59.7831
59.8350
59.9114
59.9430
59.9154
59.8845
59.8824
59.9103
59.9629
59.9935
59.9455
59.9043
59.9290
60.42
60.800
60.921
60.647
60.679
60.1160
60.1708
60.1732
60.913
60.500
60.914
60.1639
60.2360
60.2714
60.2674
60.2504
60.2556
60.3053
60.3279
60.2364
60.1707
60.2182
60.2946
60.3213
60.2962
60.2540
60.2257
60.2263
60.2496
60.2668
60.1991
60.1195
60.1062
60.1368
60.1659
60.1444
60.885
60.490
60.449
60.609
60.481
59.9373
59.8354
59.8232
59.8696
59.9074
59.9269
59.9067
59.8716
59.8436
59.8601
59.8945
59.8427
59.7488
59.7389
59.8122
59.8737
59.8780
59.8383
59.8216
59.8282
59.8572
59.9112
59.9135
59.8595
59.8376
59.8822
59.9620
60.221
60.161
60.13
60.247
60.757
60.1186
60.926
60.199
60.186
60.838
60.1537
60.2153
60.2303
60.2182
60.2098
60.2408
60.2941
60.2678
60.1686
60.1440
60.2140
60.2740
60.2882
60.2478
60.2124
60.1987
60.2062
60.2392
60.2336
60.1508
60.957
60.1053
60.1439
60.1682
60.1274
60.790
60.627
60.780
60.929
60.477
59.9250
59.8597
59.8807
59.9205
59.9584
59.9547
59.9217
59.8843
59.8645
59.8938
59.9123
59.8296
59.7595
59.7935
59.8728
59.9148
59.8969
59.8610
59.8596
59.8873
59.9367
59.9828
59.9492
59.9003
59.9137
59.9799
60.587
60.907
60.693
60.636
60.1043
60.1560
60.1731
60.1048
60.547
60.878
60.1594
60.2249
60.2748
60.2815
60.2663
60.2662
60.3110
60.3515
60.2815
60.2016
60.2284
60.3065
60.3550
60.3424
60.3013
60.2742
60.2689
60.2930
60.3208
60.2704
60.1821
60.1501
60.1827
60.2140
60.2073
60.1507
60.1111
60.1101
60.1265
60.1316
60.405
59.9324
59.9090
59.9471
59.9887
60.185
60.16
59.9683
59.9394
59.9453
59.9785
59.9434
59.8434
59.8159
59.8857
59.9538
59.9702
59.9277
59.9042
59.9055
59.9277
59.9731
59.9860
59.9319
59.9050
59.9390
60.84
60.756
60.739
60.493
60.599
60.1074
60.1522
60.1326
60.539
60.384
60.885
60.1529
60.2112
60.2300
60.2180
60.2001
60.2178
60.2695
60.2582
60.1570
60.1132
60.1706
60.2389
60.2592
60.2181
60.1768
60.1551
60.1595
60.1967
60.2064
60.1231
60.505
60.521
60.813
60.1058
60.733
60.179
59.9904
59.9957
60.104
59.9816
59.8575
59.7673
59.7726
59.8149
59.8504
59.8597
59.8314
59.7891
59.7612
59.7797
59.8128
59.7444
59.6626
59.6753
59.7525
59.8027
59.7961
59.7551
59.7496
59.7713
59.8060
59.8466
59.8325
59.7726
59.7615
59.8174
59.8936
59.9438
59.9248
59.9105
59.9438
60.1
60.401
59.9911
59.9237
59.9373
60.82
60.695
60.1303
60.1526
60.1405
60.1285
60.1633
60.2223
60.1888
60.930
60.774
60.1496
60.2099
60.2230
60.1827
60.1488
60.1370
60.1515
60.1840
60.1621
60.757
60.176
60.280
60.721
60.979
60.559
60.125
59.9985
60.93
60.243
59.9766
59.8611
59.8008
59.8223
59.8676
59.9120
59.9083
59.8705
59.8295
59.8160
59.8525
59.8639
59.7692
59.7020
59.7448
59.8218
59.8570
59.8318
59.8013
59.8033
59.8302
59.8790
59.9176
59.8828
59.8396
59.8561
59.9243
60.35
60.331
60.99
60.44
60.484
60.1041
60.1220
60.502
59.9999
60.339
60.1050
60.1694
60.2120
60.2119
60.1922
60.1908
60.2405
60.2789
60.2037
60.1201
60.1452
60.2267
60.2696
60.2493
60.2054
60.1843
60.1788
60.2032
60.2327
60.1739
60.892
60.621
60.861
60.1172
60.1130
60.564
60.95
60.16
60.151
60.131
59.9206
59.8073
59.7773
59.8266
59.8716
59.8920
59.8644
59.8328
59.8043
59.8047
59.8353
59.8080
59.7109
59.6816
59.7519
59.8213
59.8409
59.8001
59.7720
59.7785
59.8100
59.8558
59.8670
59.8124
59.7756
59.8090
59.8818
59.9515
59.9556
59.9303
59.9394
59.9872
60.468
60.408
59.9659
59.9419
59.9939
60.614
60.1268
60.1633
60.1533
60.1305
60.1405
60.1914
60.2007
60.1083
60.574
60.1140
60.1880
60.2188
60.1849
60.1479
60.1246
60.1233
60.1581
60.1727
60.973
60.301
60.279
60.646
60.939
60.763
60.316
60.54
60.86
60.258
60.70
59.8962
59.8072
59.8089
59.8534
59.8902
59.9041
59.8738
59.8352
59.8083
59.8280
59.8647
59.8037
59.7122
59.7131
59.7927
59.8523
59.8573
59.8206
59.8081
59.8246
59.8679
59.9214
59.9143
59.8584
59.8475
59.8952
59.9711
60.282
60.158
59.9968
60.260
60.816
60.1215
60.771
60.117
60.233
60.867
60.1568
60.2183
60.2356
60.2218
60.2098
60.2468
60.3050
60.2759
60.1860
60.1743
60.2478
60.3044
60.3120
60.2721
60.2423
60.2335
60.2506
60.2848
60.2607
60.1709
60.1162
60.1305
60.1660
60.1780
60.1315
60.802
60.700
60.883
60.1037
60.457
59.9194
59.8619
59.8900
59.9429
59.9805
59.9709
59.9363
59.8952
59.8859
59.9187
59.9210
59.8270
59.7670
59.8087
59.8871
59.9224
59.8981
59.8684
59.8641
59.8858
59.9243
59.9566
59.9146
59.8668
59.8785
59.9456
60.270
60.546
60.337
60.356
60.746
60.1287
60.1480
60.767
60.427
60.857
60.1485
60.2148
60.2556
60.2564
60.2336
60.2259
60.2678
60.2999
60.2207
60.1458
60.1809
60.2580
60.3020
60.2882
60.2456
60.2195
60.2136
60.2377
60.2652
60.2036
60.1197
60.995
60.1363
60.1687
60.1644
60.1100
60.689
60.663
60.832
60.780
59.9800
59.8663
59.8359
59.8756
59.9177
59.9414
59.9176
59.8781
59.8439
59.8516
59.8856
59.8466
59.7528
59.7332
59.8060
59.8654
59.8824
59.8450
59.8297
59.8408
59.8733
59.9221
59.9252
59.8647
59.8349
59.8741
59.9458
60.79
59.9997
59.9798
60.18
60.558
60.1004
60.787
60.17
59.9907
60.473
60.1196
60.1890
60.2169
60.2030
60.1804
60.1999
60.2572
60.2487
60.1582
60.1225
60.1844
60.2510
60.2700
60.2278
60.1814
60.1634
60.1696
60.2006
60.1975
60.1159
60.455
60.500
60.920
60.1198
60.847
60.352
60.146
60.262
60.403
60.75
59.8910
59.8089
59.8183
59.8668
59.9082
59.9202
59.8907
59.8475
59.8234
59.8512
59.8802
59.8053
59.7229
59.7387
59.8174
59.8669
59.8522
59.8116
59.8090
59.8338
59.8780
59.9229
59.9072
59.8515
59.8494
59.9164
60.0
60.495
60.360
60.292
60.628
60.1171
60.1485
60.930
60.274
60.408
60.1067
60.1711
60.2258
60.2363
60.2251
60.2215
60.2612
60.3157
60.2639
60.1827
60.1924
60.2696
60.3216
60.3200
60.2709
60.2458
60.2371
60.2556
60.2894
60.2505
60.1636
60.1209
60.1456
60.1821
60.1906
60.1459
60.1000
60.887
60.983
60.1015
60.245
59.9021
59.8523
59.8816
59.9253
59.9639
59.9511
59.9149
59.8794
59.8797
59.9215
59.9164
59.8193
59.7725
59.8277
59.8931
59.9175
59.8867
59.8612
59.8621
59.8806
59.9246
59.9521
59.9021
59.8581
59.8839
59.9532
60.226
60.311
60.80
60.155
60.588
60.1144
60.1160
60.313
59.9888
60.333
60.1079
60.1774
60.2135
60.2057
60.1860
60.1922
60.2381
60.2567
60.1673
60.996
60.1373
60.2063
60.2345
60.2039
60.1536
60.1275
60.1207
60.1461
60.1702
60.1082
60.255
60.16
60.381
60.676
60.571
60.36
59.9695
59.9733
59.9892
59.9751
59.8699
59.7673
59.7494
59.7885
59.8260
59.8479
59.8216
59.7779
59.7384
59.7512
59.7903
59.7459
59.6475
59.6376
59.7112
59.7727
59.7803
59.7409
59.7266
59.7395
59.7774
59.8261
59.8325
59.7733
59.7494
59.7917
59.8646
59.9256
59.9192
59.8978
59.9109
59.9637
60.133
59.9863
59.9052
59.8914
59.9468
60.142
60.805
60.1064
60.995
60.851
60.1023
60.1600
60.1580
60.618
60.237
60.889
60.1585
60.1788
60.1376
60.962
60.803
60.848
60.1148
60.1215
60.421
59.9691
59.9692
60.138
60.432
60.91
59.9580
59.9328
59.9373
59.9520
59.9306
59.8150
59.7285
59.7348
59.7860
59.8263
59.8417
59.8165
59.7806
59.7609
59.7833
59.8125
59.7396
59.6511
59.6653
59.7443
59.7949
59.7820
59.7450
59.7367
59.7517
59.7904
59.8390
59.8249
59.7671
59.7610
59.8179
59.8960
59.9457
59.9305
59.9231
59.9582
60.177
60.547
60.83
59.9461
59.9611
60.277
60.965
60.1589
60.1668
60.1461
60.1324
60.1715
60.2289
60.1882
60.1007
60.963
60.1741
60.2255
60.2309
60.1910
60.1603
60.1445
60.1561
60.1932
60.1710
60.866
60.401
60.567
60.996
60.1210
60.718
60.261
60.134
60.286
60.335
59.9733
59.8486
59.7908
59.8129
59.8539
59.8838
59.8761
59.8425
59.8018
59.7904
59.8249
59.8298
59.7371
59.6741
59.7165
59.7956
59.8316
59.8008
59.7682
59.7693
59.7905
59.8330
59.8690
59.8265
59.7707
59.7770
59.8414
59.9196
59.9423
59.9175
59.9154
59.9602
60.134
60.300
59.9584
59.9105
59.9418
60.71
60.718
60.1150
60.1192
60.1086
60.1073
60.1532
60.1939
60.1249
60.490
60.803
60.1579
60.1973
60.1734
60.1282
60.958
60.909
60.1153
60.1426
60.839
59.9918
59.9622
59.9941
60.296
60.293
59.9811
59.9419
59.9381
59.9530
59.9621
59.8816
59.7720
59.7382
59.7763
59.8223
59.8583
59.8441
59.8043
59.7649
59.7653
59.8016
59.7759
59.6725
59.6318
59.7011
59.7722
59.7966
59.7647
59.7467
59.7546
59.7828
59.8319
59.8530
59.7926
59.7537
59.7863
59.8654
59.9410
59.9503
59.9300
59.9409
59.9900
60.434
60.418
59.9610
59.9372
59.9940
60.600
60.1212
60.1500
60.1413
60.1198
60.1338
60.1949
60.2158
60.1247
60.706
60.1262
60.2024
60.2384
60.2135
60.1673
60.1485
60.1525
60.1881
60.2017
60.1266
60.572
60.519
60.822
60.1049
60.803
60.254
59.9988
60.79
60.230
60.59
59.8946
59.7988
59.7852
59.8211
59.8630
59.8826
59.8595
59.8186
59.7893
59.8072
59.8433
59.7850
59.6975
59.6989
59.7748
59.8298
59.8356
59.7948
59.7803
59.7887
59.8212
59.8697
59.8603
59.7990
59.7774
59.8258
59.8997
59.9612
59.9530
59.9380
59.9593
60.115
60.524
60.189
59.9490
59.9495
60.151
60.853
60.1472
60.1669
60.1556
60.1397
60.1661
60.2217
60.1996
60.1098
60.918
60.1626
60.2246
60.2341
60.1868
60.1508
60.1377
60.1516
60.1860
60.1771
60.897
60.280
60.395
60.805
60.1036
60.633
60.111
59.9963
60.138
60.274
59.9822
59.8595
59.7896
59.8043
59.8468
59.8900
59.8972
59.8589
59.8088
59.7907
59.8248
59.8475
59.7546
59.6753
59.7090
59.7874
59.8298
59.8190
59.7886
59.7878
59.8088
59.8526
59.8919
59.8564
59.8069
59.8104
59.8728
59.9527
59.9869
59.9638
59.9549
59.9931
60.560
60.818
60.128
59.9588
59.9865
60.520
60.1193
60.1680
60.1707
60.1564
60.1533
60.1954
60.2421
60.1810
60.1001
60.1154
60.1948
60.2440
60.2404
60.1966
60.1734
60.1659
60.1831
60.2162
60.1657
60.702
60.391
60.651
60.971
60.988
60.463
60.4
59.9916
60.97
60.171
59.9346
59.8186
59.7836
59.8207
59.8692
59.9038
59.8909
59.8562
59.8178
59.8193
59.8562
59.8375
59.7435
59.7106
59.7690
59.8376
59.8576
59.8265
59.8037
59.8147
59.8513
59.8967
59.9131
59.8578
59.8212
59.8505
59.9305
60.65
60.154
59.9981
60.107
60.641
60.1228
60.1224
60.448
60.212
60.775
60.1445
60.2097
60.2491
60.2385
60.2123
60.2270
60.2864
60.3027
60.2109
60.1559
60.2013
60.2748
60.3046
60.2819
60.2449
60.2237
60.2248
60.2553
60.2722
60.2007
60.1240
60.1222
60.1579
60.1828
60.1563
60.1013
60.725
60.763
60.951
60.796
59.9637
59.8672
59.8624
59.9065
59.9444
59.9506
59.9264
59.8911
59.8606
59.8792
59.9154
59.8526
59.7578
59.7570
59.8344
59.8924
59.8978
59.8564
59.8558
59.8761
59.9155
59.9651
59.9492
59.8901
59.8735
59.9201
59.9932
60.517
60.364
60.142
60.322
60.868
60.1308
60.861
60.162
60.242
60.898
60.1551
60.2142
60.2264
60.2071
60.1962
60.2324
60.2880
60.2520
60.1527
60.1365
60.2091
60.2680
60.2663
60.2171
60.1755
60.1564
60.1621
60.1976
60.1796
60.886
60.241
60.338
60.701
60.931
60.515
60.1
59.9813
59.9921
60.5
59.9479
59.8247
59.7625
59.7849
59.8317
59.8658
59.8588
59.8306
59.7944
59.7807
59.8067
59.8153
59.7245
59.6506
59.6872
59.7655
59.8051
59.7851
59.7434
59.7371
59.7607
59.8087
59.8530
59.8196
59.7684
59.7797
59.8413
59.9158
59.9512
59.9334
59.9345
59.9689
60.207
60.453
59.9777
59.9261
59.9528
60.169
60.839
60.1370
60.1319
60.1084
60.1012
60.1466
60.1944
60.1349
60.472
60.604
60.1392
60.1843
60.1737
60.1299
60.1087
60.1066
60.1266
60.1586
60.1166
60.311
59.9950
60.140
60.500
60.550
59.9997
59.9570
59.9518
59.9661
59.9709
59.8886
59.7677
59.7276
59.7608
59.8044
59.8377
59.8201
59.7826
59.7498
59.7560
59.8036
59.7901
59.6961
59.6494
59.7109
59.7853
59.8143
59.7815
59.7580
59.7665
59.7984
59.8444
59.8636
59.8086
59.7707
59.8010
59.8746
59.9454
59.9617
59.9426
59.9498
59.9986
60.550
60.570
59.9853
59.9577
60.81
60.778
60.1519
60.1937
60.1921
60.1781
60.1913
60.2415
60.2656
60.1771
60.1149
60.1623
60.2345
60.2657
60.2404
60.1959
60.1749
60.1768
60.1986
60.2134
60.1456
60.670
60.582
60.939
60.1293
60.1131
60.641
60.340
60.361
60.559
60.469
59.9374
59.8371
59.8280
59.8704
59.9108
59.9272
59.9057
59.8628
59.8329
59.8438
59.8733
59.8191
59.7208
59.7144
59.7903
59.8464
59.8523
59.8143
59.8026
59.8207
59.8558
59.9010
59.8938
59.8323
59.8127
59.8598
59.9387
59.9937
59.9787
59.9584
59.9808
60.380
60.816
60.493
59.9729
59.9717
60.350
60.1000
60.1648
60.1825
60.1641
60.1414
60.1697
60.2316
60.2177
60.1194
60.934
60.1626
60.2300
60.2476
60.2143
60.1778
60.1583
60.1662
60.1941
60.1847
60.986
60.411
60.516
60.845
60.1059
60.616
60.118
59.9917
60.8
60.159
59.9758
59.8519
59.7839
59.8042
59.8497
59.8893
59.8915
59.8598
59.8188
59.8022
59.8266
59.8452
59.7627
59.6875
59.7187
59.7982
59.8412
59.8262
59.7898
59.7838
59.8046
59.8435
59.8825
59.8501
59.7974
59.8058
59.8655
59.9313
59.9717
59.9496
59.9429
59.9833
60.447
60.718
60.89
59.9447
59.9735
60.447
60.1119
60.1669
60.1716
60.1517
60.1404
60.1763
60.2255
60.1674
60.846
60.935
60.1688
60.2185
60.2160
60.1706
60.1400
60.1327
60.1575
60.1954
60.1576
60.681
60.308
60.639
60.1064
60.1136
60.666
60.217
60.151
60.293
60.384
59.9631
59.8406
59.7953
59.8328
59.8771
59.9092
59.8956
59.8586
59.8244
59.8207
59.8595
59.8502
59.7485
59.6991
59.7534
59.8285
59.8612
59.8325
59.8038
59.8126
59.8448
59.8967
59.9320
59.8806
59.8430
59.8718
59.9361
60.36
60.99
59.9873
59.9932
60.423
60.941
60.974
60.196
59.9842
60.323
60.1061
60.1746
60.2107
60.2101
60.1947
60.2043
60.2520
60.2764
60.1940
60.1338
60.1794
60.2551
60.2846
60.2548
60.2087
60.1833
60.1857
60.2155
60.2354
60.1660
60.895
60.746
60.1077
60.1353
60.1164
60.616
60.285
60.270
60.450
60.358
59.9279
59.8281
59.8184
59.8629
59.9090
59.9309
59.9102
59.8731
59.8384
59.8496
59.8897
59.8389
59.7376
59.7218
59.7937
59.8510
59.8551
59.8166
59.8046
59.8179
59.8505
59.9004
59.9020
59.8438
59.8227
59.8765
59.9566
60.124
60.28
59.9872
60.113
60.668
60.1097
60.771
60.79
60.69
60.626
60.1220
60.1845
60.1997
60.1841
60.1693
60.1936
60.2506
60.2332
60.1399
60.1154
60.1854
60.2558
60.2675
60.2238
60.1952
60.1879
60.2000
60.2324
60.2272
60.1388
60.759
60.854
60.1259
60.1472
60.1014
60.481
60.250
60.355
60.495
60.10
59.8739
59.8028
59.8211
59.8654
59.9035
59.9034
59.8714
59.8329
59.8162
59.8475
59.8772
59.7982
59.7168
59.7460
59.8290
59.8732
59.8589
59.8261
59.8213
59.8458
59.8888
59.9288
59.8954
59.8448
59.8501
59.9134
59.9908
60.283
60.57
59.9953
60.339
60.919
60.1234
60.618
60.144
60.470
60.1189
60.1903
60.2470
60.2597
60.2431
60.2423
60.2887
60.3304
60.2593
60.1732
60.1972
60.2762
60.3191
60.3023
60.2550
60.2300
60.2260
60.2495
60.2815
60.2369
60.1517
60.1195
60.1491
60.1850
60.1844
60.1361
60.993
60.986
60.1152
60.1228
60.334
59.9167
59.8829
59.9251
59.9688
59.9953
59.9797
59.9437
59.9022
59.8984
59.9346
59.9104
59.8149
59.7804
59.8402
59.9043
59.9282
59.8916
59.8677
59.8779
59.9102
59.9529
59.9744
59.9270
59.8924
59.9190
59.9929
60.671
60.708
60.507
60.626
60.1057
60.1478
60.1335
60.589
60.395
60.856
60.1485
60.2125
60.2301
60.2225
60.2139
60.2240
60.2724
60.2762
60.1843
60.1320
60.1861
60.2569
60.2797
60.2481
60.2100
60.1850
60.1856
60.2113
60.2195
60.1460
60.704
60.559
60.852
60.1093
60.787
60.186
59.9907
59.9879
59.9971
59.9707
59.8603
59.7649
59.7571
59.7986
59.8425
59.8623
59.8424
59.7995
59.7689
59.7861
59.8228
59.7616
59.6626
59.6620
59.7392
59.7915
59.7901
59.7399
59.7309
59.7503
59.7838
59.8319
59.8194
59.7624
59.7495
59.8032
59.8814
59.9330
59.9168
59.9043
59.9336
59.9945
60.395
59.9955
59.9265
59.9298
59.9946
60.671
60.1316
60.1477
60.1361
60.1199
60.1477
60.2021
60.1804
60.839
60.570
60.1263
60.1873
60.1954
60.1528
60.1155
60.965
60.1070
60.1444
60.1394
60.569
60.30
60.189
60.566
60.746
60.374
59.9864
59.9690
59.9807
59.9956
59.9539
59.8304
59.7590
59.7704
59.8151
59.8524
59.8559
59.8232
59.7829
59.7691
59.8034
59.8205
59.7306
59.6552
59.6860
59.7664
59.8109
59.7975
59.7625
59.7586
59.7795
59.8289
59.8736
59.8395
59.7879
59.7936
59.8581
59.9367
59.9772
59.9562
59.9497
59.9857
60.447
60.665
60.5
59.9434
59.9701
60.402
60.1149
60.1690
60.1792
60.1634
60.1639
60.2149
60.2593
60.1941
60.1097
60.1293
60.2107
60.2573
60.2425
60.1931
60.1581
60.1508
60.1716
60.2042
60.1577
60.695
60.312
60.562
60.937
60.1008
60.454
60.44
59.9964
60.92
60.139
59.9342
59.8212
59.7832
59.8209
59.8681
59.8976
59.8849
59.8488
59.8132
59.8129
59.8538
59.8367
59.7383
59.6912
59.7489
59.8178
59.8433
59.8057
59.7741
59.7809
59.8159
59.8657
59.8892
59.8388
59.8046
59.8328
59.9029
59.9724
59.9774
59.9513
59.9599
60.148
60.724
60.758
59.9951
59.9591
60.15
60.688
60.1376
60.1716
60.1628
60.1408
60.1454
60.1992
60.2176
60.1323
60.702
60.1207
60.1942
60.2235
60.2014
60.1572
60.1343
60.1395
60.1738
60.1902
60.1194
60.371
60.258
60.665
60.989
60.787
60.173
59.9802
59.9847
60.37
59.9960
59.8894
59.7850
59.7687
59.8072
59.8489
59.8703
59.8477
59.8107
59.7805
59.7884
59.8294
59.7835
59.6873
59.6803
59.7581
59.8195
59.8295
59.7891
59.7704
59.7857
59.8200
59.8695
59.8639
59.8026
59.7788
59.8290
59.9023
59.9602
59.9470
59.9293
59.9563
60.126
60.593
60.263
59.9540
59.9527
60.152
60.813
60.1480
60.1734
60.1614
60.1442
60.1689
60.2267
60.2155
60.1165
60.881
60.1512
60.2138
60.2346
60.1960
60.1549
60.1366
60.1453
60.1836
60.1815
60.1016
60.348
60.385
60.783
60.1071
60.739
60.249
60.51
60.145
60.352
60.50
59.8835
59.8081
59.8237
59.8749
59.9168
59.9149
59.8821
59.8408
59.8186
59.8445
59.8618
59.7781
59.6949
59.7215
59.7987
59.8454
59.8339
59.8058
59.8041
59.8323
59.8753
59.9169
59.8872
59.8346
59.8396
59.9002
59.9774
60.136
59.9931
59.9863
60.228
60.822
60.1137
60.498
59.9900
60.201
60.949
60.1579
60.2105
60.2129
60.1950
60.1848
60.2279
60.2772
60.2225
60.1373
60.1514
60.2309
60.2778
60.2736
60.2346
60.2107
60.2048
60.2269
60.2571
60.2154
60.1263
60.880
60.1141
60.1435
60.1483
60.939
60.511
60.419
60.552
60.607
59.9817
59.8675
59.8271
59.8636
59.9096
59.9407
59.9230
59.8888
59.8563
59.8503
59.8916
59.8770
59.7755
59.7261
59.7874
59.8586
59.8879
59.8533
59.8278
59.8297
59.8570
59.9013
59.9202
59.8676
59.8293
59.8561
59.9263
59.9981
60.53
59.9825
59.9951
60.471
60.984
60.984
60.271
59.9998
60.456
60.1124
60.1772
60.2124
60.1970
60.1707
60.1840
60.2413
60.2622
60.1698
60.1058
60.1517
60.2279
60.2584
60.2335
60.1866
60.1603
60.1616
60.1871
60.2030
60.1360
60.605
60.457
60.810
60.1147
60.1000
60.471
60.190
60.219
60.381
60.218
59.9083
59.8040
59.7901
59.8355
59.8811
59.9031
59.8711
59.8273
59.7988
59.8141
59.8486
59.7955
59.7000
59.6912
59.7683
59.8345
59.8425
59.8020
59.7928
59.8099
59.8489
59.9020
59.8948
59.8379
59.8198
59.8686
59.9432
60.35
59.9942
59.9818
60.54
60.574
60.980
60.643
59.9925
59.9948
60.587
60.1270
60.1901
60.2131
60.1991
60.1803
60.2082
60.2729
60.2565
60.1606
60.1404
60.2126
60.2781
60.2905
60.2466
60.2100
60.1970
60.2067
60.2395
60.2275
60.1425
60.814
60.910
60.1268
60.1436
60.1059
60.552
60.404
60.550
60.738
60.361
59.9168
59.8446
59.8621
59.9070
59.9413
59.9440
59.9162
59.8736
59.8563
59.8875
59.9056
59.8171
59.7409
59.7757
59.8576
59.8997
59.8748
59.8401
59.8452
59.8671
59.9074
59.9445
59.9038
59.8442
59.8527
59.9191
59.9980
60.340
60.157
60.103
60.480
60.1124
60.1403
60.752
60.198
60.480
60.1132
60.1801
60.2268
60.2242
60.2048
60.2010
60.2440
60.2826
60.2216
60.1456
60.1679
60.2457
60.2930
60.2787
60.2367
60.2117
60.2066
60.2271
60.2507
60.1986
60.1163
60.853
60.1179
60.1517
60.1497
60.938
60.528
60.498
60.675
60.679
59.9781
59.8552
59.8131
59.8450
59.8900
59.9227
59.9018
59.8607
59.8208
59.8242
59.8682
59.8474
59.7480
59.7103
59.7778
59.8509
59.8794
59.8409
59.8182
59.8225
59.8492
59.8938
59.9071
59.8529
59.8177
59.8470
59.9220
59.9945
60.6
59.9765
59.9853
60.308
60.831
60.775
59.9988
59.9750
60.270
60.973
60.1542
60.1834
60.1768
60.1715
60.1907
60.2503
60.2617
60.1744
60.1177
60.1679
60.2355
60.2610
60.2292
60.1811
60.1540
60.1532
60.1803
60.1973
60.1272
60.500
60.428
60.796
60.1140
60.980
60.441
60.106
60.177
60.377
60.226
59.9053
59.8040
59.8062
59.8554
59.8977
59.9133
59.8850
59.8452
59.8165
59.8339
59.8692
59.8100
59.7180
59.7203
59.7998
59.8538
59.8587
59.8209
59.8092
59.8274
59.8695
59.9247
59.9173
59.8659
59.8564
59.9133
59.9968
60.540
60.372
60.229
60.491
60.1089
60.1510
60.1025
60.292
60.385
60.1047
60.1731
60.2364
60.2508
60.2355
60.2220
60.2594
60.3225
60.2868
60.1941
60.1848
60.2587
60.3218
60.3289
60.2835
60.2559
60.2439
60.2576
60.2990
60.2828
60.1931
60.1407
60.1526
60.1850
60.2010
60.1563
60.1053
60.865
60.931
60.1046
60.495
59.9225
59.8580
59.8849
59.9334
59.9685
59.9634
59.9303
59.8911
59.8809
59.9159
59.9266
59.8355
59.7754
59.8193
59.8991
59.9298
59.8958
59.8608
59.8591
59.8767
59.9213
59.9617
59.9166
59.8659
59.8796
59.9436
60.135
60.367
60.142
60.93
60.532
60.1087
60.1203
60.488
59.9990
60.352
60.1019
60.1621
60.2022
60.2015
60.1835
60.1877
60.2344
60.2644
60.1818
60.1021
60.1250
60.1967
60.2382
60.2211
60.1721
60.1446
60.1381
60.1607
60.1860
60.1290
60.427
60.213
60.555
60.848
60.821
60.302
59.9920
59.9895
60.85
60.71
59.9089
59.7915
59.7621
59.8067
59.8518
59.8757
59.8518
59.8065
59.7725
59.7808
59.8173
59.7883
59.6845
59.6530
59.7220
59.7919
59.8043
59.7706
59.7564
59.7690
59.8024
59.8491
59.8647
59.8141
59.7774
59.8085
59.8849
59.9573
59.9610
59.9370
59.9423
59.9938
60.412
60.256
59.9438
59.9231
59.9756
60.437
60.1145
60.1434
60.1358
60.1182
60.1310
60.1881
60.2018
60.1130
60.576
60.1117
60.1835
60.2068
60.1735
60.1347
60.1156
60.1156
60.1420
60.1564
60.861
60.119
60.28
60.399
60.694
60.495
59.9934
59.9633
59.9704
59.9861
59.9718
59.8639
59.7773
59.7761
59.8161
59.8610
59.8768
59.8542
59.8144
59.7876
59.8129
59.8557
59.7958
59.7017
59.7034
59.7787
59.8323
59.8308
59.7895
59.7820
59.7994
59.8399
59.8867
59.8766
59.8167
59.8050
59.8538
59.9393
59.9974
59.9912
59.9801
60.39
60.611
60.1098
60.722
59.9971
60.11
60.647
60.1298
60.1894
60.2053
60.1929
60.1789
60.2064
60.2560
60.2202
60.1268
60.1131
60.1820
60.2406
60.2571
60.2195
60.1820
60.1664
60.1794
60.2216
60.2045
60.1193
60.716
60.850
60.1246
60.1420
60.1023
60.493
60.330
60.458
60.568
60.69
59.8793
59.8126
59.8350
59.8775
59.9091
59.9096
59.8833
59.8484
59.8316
59.8661
59.8756
59.7844
59.7188
59.7648
59.8409
59.8743
59.8531
59.8190
59.8170
59.8404
59.8806
59.9132
59.8709
59.8253
59.8388
59.9026
59.9745
60.56
59.9782
59.9743
60.165
60.725
60.901
60.138
59.9618
59.9936
60.646
60.1334
60.1865
60.1916
60.1651
60.1601
60.2099
60.2556
60.1888
60.1082
60.1281
60.1966
60.2319
60.2186
60.1699
60.1435
60.1420
60.1630
60.1922
60.1411
60.502
60.171
60.455
60.804
60.838
60.336
59.9927
59.9855
60.3
60.85
59.9294
59.8142
59.7740
59.8073
59.8516
59.8866
59.8739
59.8362
59.8002
59.8023
59.8414
59.8118
59.7109
59.6741
59.7362
59.8006
59.8179
59.7767
59.7564
59.7674
59.7989
59.8482
59.8674
59.8194
59.7913
59.8243
59.8980
59.9706
59.9786
59.9595
59.9699
60.144
60.676
60.581
59.9796
59.9558
60.50
60.756
60.1428
60.1741
60.1682
60.1499
60.1670
60.2277
60.2453
60.1540
60.1032
60.1585
60.2285
60.2546
60.2329
60.1939
60.1710
60.1719
60.2097
60.2259
60.1548
60.814
60.794
60.1139
60.1398
60.1129
60.582
60.286
60.291
60.418
60.221
59.9107
59.8139
59.8099
59.8609
59.9083
59.9178
59.8924
59.8572
59.8297
59.8507
59.8907
59.8310
59.7379
59.7399
59.8183
59.8680
59.8689
59.8268
59.8179
59.8322
59.8677
59.9137
59.9001
59.8390
59.8257
59.8782
59.9526
60.52
59.9866
59.9785
60.79
60.645
60.1072
60.695
60.25
60.54
60.649
60.1348
60.1981
60.2188
60.2042
60.1931
60.2257
60.2760
60.2460
60.1530
60.1370
60.2060
60.2632
60.2677
60.2188
60.1858
60.1730
60.1797
60.2130
60.2031
60.1159
60.579
60.741
60.1161
60.1404
60.950
60.417
60.215
60.330
60.465
59.9912
59.8628
59.7944
59.8102
59.8562
59.8943
59.8905
59.8559
59.8150
59.7987
59.8262
59.8353
59.7480
59.6782
59.7171
59.7956
59.8336
59.8111
59.7835
59.7869
59.8067
59.8464
59.8809
59.8398
59.7882
59.8038
59.8733
59.9501
59.9804
59.9640
59.9587
59.9975
60.498
60.675
59.9969
59.9487
59.9841
60.519
60.1128
60.1594
60.1647
60.1510
60.1531
60.2041
60.2519
60.1897
60.1136
60.1373
60.2165
60.2633
60.2484
60.1973
60.1724
60.1653
60.1837
60.2125
60.1654
60.796
60.476
60.827
60.1157
60.1121
60.567
60.110
60.61
60.244
60.299
59.9437
59.8285
59.7959
59.8353
59.8794
59.9092
59.8924
59.8593
59.8286
59.8302
59.8705
59.8490
59.7526
59.7227
59.7844
59.8546
59.8733
59.8340
59.8155
59.8280
59.8564
59.9057
59.9208
59.8669
59.8335
59.8755
59.9593
60.378
60.435
60.257
60.429
60.944
60.1501
60.1426
60.673
60.508
60.1028
60.1662
60.2308
60.2605
60.2451
60.2268
60.2464
60.3038
60.3109
60.2185
60.1702
60.2311
60.3025
60.3254
60.2953
60.2600
60.2392
60.2431
60.2748
60.2784
60.2090
60.1459
60.1445
60.1788
60.2048
60.1794
60.1247
60.986
60.1043
60.1209
60.939
59.9638
59.8673
59.8722
59.9166
59.9535
59.9624
59.9311
59.8973
59.8757
59.8955
59.9232
59.8566
59.7667
59.7782
59.8614
59.9158
59.9119
59.8717
59.8613
59.8750
59.9145
59.9601
59.9382
59.8729
59.8665
59.9200
59.9923
60.377
60.153
60.32
60.307
60.837
60.1193
60.648
60.37
60.115
60.733
60.1387
60.1941
60.2061
60.1877
60.1750
60.2099
60.2611
60.2169
60.1215
60.1121
60.1813
60.2278
60.2277
60.1791
60.1437
60.1310
60.1458
60.1756
60.1437
60.538
60.10
60.192
60.545
60.716
60.308
59.9846
59.9670
59.9754
59.9857
59.9264
59.7928
59.7310
59.7626
59.8104
59.8509
59.8447
59.8089
59.7705
59.7551
59.7853
59.7947
59.7052
59.6342
59.6734
59.7458
59.7815
59.7591
59.7248
59.7261
59.7513
59.7985
59.8342
59.7925
59.7499
59.7688
59.8357
59.9096
59.9333
59.9123
59.9135
59.9531
60.106
60.315
59.9648
59.9075
59.9367
60.33
60.652
60.1103
60.1131
60.987
60.977
60.1450
60.1877
60.1183
60.367
60.597
60.1389
60.1785
60.1636
60.1190
60.936
60.834
60.1026
60.1347
60.883
59.9999
59.9693
60.12
60.338
60.329
59.9763
59.9282
59.9196
59.9339
59.9379
59.8528
59.7280
59.6962
59.7344
59.7797
59.8090
59.7984
59.7659
59.7308
59.7382
59.7768
59.7602
59.6647
59.6297
59.6974
59.7694
59.7918
59.7541
59.7269
59.7339
59.7572
59.8025
59.8241
59.7764
59.7395
59.7709
59.8476
59.9191
59.9315
59.9134
59.9207
59.9704
60.263
60.239
59.9486
59.9262
59.9737
60.383
60.1026
60.1441
60.1430
60.1330
60.1502
60.2006
60.2185
60.1335
60.763
60.1230
60.1957
60.2203
60.1908
60.1454
60.1249
60.1268
60.1522
60.1698
60.970
60.199
60.105
60.578
60.1007
60.862
60.264
59.9930
59.9949
60.141
59.9993
59.8827
59.7753
59.7599
59.8047
59.8489
59.8707
59.8471
59.8087
59.7773
59.7898
59.8265
59.7746
59.6780
59.6670
59.7394
59.7946
59.8000
59.7592
59.7422
59.7600
59.7986
59.8522
59.8503
59.7928
59.7739
59.8211
59.9010
59.9621
59.9497
59.9280
59.9463
59.9942
60.358
59.9991
59.9166
59.9113
59.9705
60.404
60.1101
60.1333
60.1294
60.1167
60.1385
60.1999
60.1903
60.951
60.665
60.1344
60.1929
60.2020
60.1593
60.1226
60.1060
60.1149
60.1475
60.1440
60.605
59.9993
60.83
60.444
60.644
60.287
59.9742
59.9461
59.9542
59.9728
59.9442
59.8364
59.7719
59.8025
59.8668
59.9198
59.9392
59.9227
59.9026
59.9032
59.9464
59.9860
59.9246
59.8735
59.9292
60.365
60.1037
60.1197
60.1130
60.1452
60.2088
60.2989
60.3913
60.4043
60.4089
60.4807
60.6146
60.7619
60.8608
60.9128
60.9984
61.1295
61.2711
61.3565
61.3575
61.4326
61.5994
61.7841
61.9615
62.939
62.1911
62.2979
62.4578
62.6437
62.7195
62.7803
62.9492
63.1690
63.3580
63.4739
63.5909
63.7333
63.9074
64.1195
64.2655
64.3526
64.4965
64.7101
64.9378
65.1159
65.2625
65.4337
65.6431
65.8501
65.9520
66.528
66.2591
66.5096
66.7678
66.9816
67.1726
67.3682
67.6186
67.8627
68.53
68.2106
68.5120
68.8033
69.399
69.2576
69.5058
69.7867
70.876
70.3093
70.5257
70.8199
71.1621
71.4573
71.7126
71.9957
72.3093
72.5812
72.7857
73.595
73.3906
73.7427
74.609
74.3337
74.6138
74.9505
75.1998
75.4259
75.7551
76.938
76.3836
76.6487
76.9205
77.2257
77.5164
77.7418
78.190
78.3472
78.6591
78.9360
79.2238
79.5304
79.7823
79.9921
80.2876
80.6290
80.9713
81.2688
81.5420
81.8626
82.1355
82.3873
82.7340
83.910
83.3990
83.7034
84.286
84.3815
84.6655
84.9596
85.3211
85.7063
86.371
86.3677
86.7118
86.9913
87.2817
87.6340
88.239
88.3841
88.6934
89.334
89.3414
89.6168
89.9740
90.3305
90.6521
90.9566
91.2787
91.5911
91.8632
92.1816
92.5294
92.8485
93.1581
93.4752
93.7226
93.9826
94.3150
94.6859
95.204
95.3193
95.6513
95.9177
96.2384
96.5985
96.9369
97.2674
97.6044
97.9423
98.2388
98.5867
98.9763
99.3285
99.6739
100.132
100.2971
100.6317
101.116
101.4020
101.7336
102.833
102.3735
102.6872
103.447
103.3840
103.7084
104.319
104.3390
104.6268
104.9631
105.3102
105.6363
105.9523
106.2148
106.4771
106.8074
107.1817
107.5049
107.8163
108.1036
108.3990
108.7509
109.914
109.4242
109.7628
110.721
110.3832
110.7529
111.1185
111.4624
111.7915
112.718
112.3972
112.7717
113.1387
113.4656
113.7815
114.673
114.4123
114.7546
115.782
115.3934
115.6788
115.9657
116.2993
116.6247
116.9367
117.2209
117.4691
117.7787
118.1419
118.4633
118.7758
119.451
119.3590
119.6964
120.323
120.3576
120.6721
120.9703
121.3273
121.6911
122.337
122.3467
122.6373
122.9732
123.3531
123.6922
124.245
124.2987
124.6222
124.9627
125.2912
125.6051
125.8883
126.1902
126.5265
126.8536
127.1642
127.4139
127.6977
128.432
128.3781
128.6889
128.9629
129.2755
129.6121
129.9513
130.2813
130.5822
130.8937
131.2628
131.6138
131.9432
132.2265
132.5486
132.9250
133.2695
133.6018
133.8803
134.2038
134.5453
134.8617
135.1641
135.4404
135.7568
136.873
136.4050
136.6692
136.9380
137.2718
137.6133
137.9242
138.1911
138.5010
138.8321
139.1661
139.4906
139.7802
140.1176
140.4755
140.8138
141.1013
141.4076
141.7637
142.1129
142.4431
142.7212
143.392
143.3782
143.6938
143.9899
144.2736
144.5973
144.9221
145.2153
145.4662
145.7705
146.1203
146.4341
146.7115
147.146
147.3419
147.6768
147.9963
148.2883
148.6351
148.9898
149.3177
149.6086
149.9338
150.3026
150.6421
150.9327
151.2404
151.5771
151.9002
152.2041
152.4874
152.8051
153.1342
153.4332
153.6945
154.62
154.3439
154.6533
154.9269
155.2412
155.5809
155.9129
156.2129
156.5264
156.8823
157.2232
157.5160
157.8252
158.1851
158.5268
158.8300
159.1358
159.4732
159.7937
160.890
160.3740
160.6984
161.188
161.2931
161.5651
161.9038
162.2242
162.5129
162.8053
163.1305
163.4591
163.7692
164.690
164.4188
164.7624
165.607
165.3656
165.7216
166.596
166.3542
166.6555
166.9892
167.3030
167.5921
167.8895
168.2145
168.5224
168.7802
169.765
169.4091
169.7179
169.9984
170.3126
170.6468
170.9649
171.2611
171.6079
171.9537
172.2569
172.5603
172.9164
173.2569
173.5522
173.8599
174.1952
174.5059
174.7884
175.973
175.4256
175.7139
175.9816
176.3139
176.6355
176.9196
177.2172
177.5478
177.8749
178.1684
178.4964
178.8447
179.1570
179.4550
179.8004
180.1373
180.4307
180.7368
181.706
181.3783
181.6596
181.9725
182.2897
182.5584
182.8363
183.1712
183.4815
183.7618
184.693
184.3980
184.7102
185.86
185.3530
185.6773
185.9714
186.3011
186.6455
186.9530
187.2506
187.5801
187.8890
188.1722
188.4814
188.8047
189.850
189.3674
189.6964
190.26
190.2879
190.6056
190.9360
191.2385
191.5554
191.9019
192.2122
192.5116
192.8583
193.1946
193.4877
193.8064
194.1299
194.4246
194.7160
195.381
195.3315
195.5982
195.9254
196.2397
196.5207
196.8256
197.1540
197.4600
197.7663
198.1079
198.4192
198.7153
199.538
199.3802
199.6699
199.9863
200.2996
200.5871
200.8869
201.2047
201.4769
201.7580
202.829
202.3795
202.6638
202.9850
203.3033
203.5949
203.9313
204.2556
204.5462
204.8733
205.2105
205.5076
205.8126
206.1301
206.4229
206.7156
207.363
207.3225
207.5972
207.9199
208.2201
208.5060
208.8230
209.1392
209.4321
209.7700
210.915
210.3842
210.7170
211.471
211.3388
211.6546
211.9674
212.2550
212.5598
212.8742
213.1408
213.4387
213.7533
214.410
214.3433
214.6636
214.9629
215.2791
215.6140
215.9143
216.2267
216.5611
216.8634
217.1674
217.4843
217.7744
218.720
218.3898
218.6642
218.9532
219.2691
219.5584
219.8580
220.1818
220.4806
220.8026
221.1386
221.4368
221.7541
222.895
222.3893
222.7051
223.184
223.3032
223.6124
223.9230
224.1914
224.5051
224.8152
225.1021
225.4177
225.7332
226.261
226.3634
226.6806
226.9786
227.3150
227.6306
227.9296
228.2492
228.5437
228.8388
229.1560
229.4314
229.7247
230.358
230.3259
230.6354
230.9534
231.2456
231.5795
231.8950
232.1894
232.5239
232.8395
233.1355
233.4552
233.7494
234.434
234.3564
234.6309
234.9338
235.2414
235.5248
235.8406
236.1567
236.4530
236.7895
237.977
237.4028
237.7335
238.348
238.3464
238.6589
238.9442
239.2538
239.5471
239.8176
240.1306
240.4238
240.7163
241.346
241.3308
241.6535
241.9680
242.2582
242.5833
242.8931
243.1866
243.4990
243.7832
244.778
244.3784
244.6442
244.9515
245.2450
245.5281
245.8427
246.1406
246.4578
246.7769
247.660
247.3894
247.7016
247.9970
248.3101
248.5954
248.8950
249.1940
249.4627
249.7738
250.655
250.3575
250.6714
250.9610
251.2865
251.6009
251.8974
252.2229
252.5216
252.8294
253.1314
253.4126
253.7233
254.82
254.2943
254.5978
254.8810
255.1909
255.4976
255.7971
256.1217
256.4162
256.7337
257.471
257.3356
257.6488
257.9344
258.2316
258.5269
258.7987
259.1079
259.3945
259.6906
260.12
260.2932
260.6197
260.9201
261.2297
261.5461
261.8341
262.1489
262.4411
262.7383
263.389
263.3075
263.6162
263.9063
264.2048
264.5135
264.8055
265.1306
265.4286
265.7419
266.573
266.3471
266.6590
266.9461
267.2485
267.5397
267.8164
268.1241
268.4071
268.7114
269.162
269.3191
269.6374
269.9287
270.2521
270.5575
270.8611
271.1640
271.4455
271.7538
272.309
272.3298
272.6267
272.9158
273.2297
273.5200
273.8453
274.1519
274.4591
274.7775
275.686
275.3821
275.6708
275.9733
276.2641
276.5438
276.8437
277.1240
277.4341
277.7335
278.462
278.3508
278.6438
278.9634
279.2506
279.5596
279.8453
280.1343
280.4253
280.7001
281.31
281.2795
281.5805
281.8748
282.1792
282.4840
282.7782
283.953
283.3803
283.6892
283.9756
284.2678
284.5558
284.8322
285.1334
285.4133
285.7201
286.112
286.3254
286.6273
286.9283
287.2437
287.5325
287.8429
288.1268
288.4295
288.7133
289.46
289.2996
289.5854
289.8944
290.1848
290.5060
290.8003
291.1123
291.4143
291.7163
292.143
292.2967
292.5838
292.8392
293.1298
293.3997
293.6838
293.9628
294.2493
294.5343
294.8084
295.950
295.3531
295.6339
295.8879
296.1579
296.4034
296.6598
296.9106
297.1600
297.4219
297.6723
297.9374
298.1762
298.4398
298.6779
298.9298
299.1601
299.3886
299.6085
299.8225
300.399
300.2440
300.4685
300.6732
300.9019
301.1022
301.3171
301.5133
301.7140
301.9016
302.797
302.2541
302.4113
302.5822
302.7339
302.9104
303.653
303.2423
303.3946
303.5563
303.7091
303.8577
303.9929
304.1196
304.2482
304.3539
304.4776
304.5767
304.6990
304.8028
304.9291
305.333
305.1424
305.2431
305.3411
305.4301
305.5040
305.5832
305.6380
305.7148
305.7709
305.8489
305.9075
305.9862
306.464
306.1137
306.1745
306.2282
306.2781
306.3120
306.3555
306.3728
306.4132
306.4319
306.4745
306.5034
306.5515
306.5830
306.6166
306.6483
306.6738
306.6975
306.7009
306.7163
306.7071
306.7230
306.7153
306.7290
306.7317
306.7545
306.7608
306.7701
306.7769
306.7731
306.7724
306.7571
306.7544
306.7215
306.7134
306.6883
306.6839
306.6676
306.6717
306.6627
306.6535
306.6470
306.6298
306.6175
306.5865
306.5723
306.5275
306.5109
306.4763
306.4584
306.4346
306.4274
306.4130
306.3953
306.3820
306.3548
306.3396
306.3022
306.2815
306.2320
306.2088
306.1731
306.1513
306.1236
306.1079
306.890
306.663
306.533
306.190
306.7
305.9597
305.9385
305.8885
305.8630
305.8245
305.7989
305.7767
305.7588
305.7409
305.7148
305.7063
305.6747
305.6642
305.6266
305.6026
305.5583
305.5343
305.5031
305.4754
305.4516
305.4286
305.4190
305.3944
305.3862
305.3531
305.3433
305.3108
305.2915
305.2527
305.2227
305.1911
305.1618
305.1487
305.1243
305.1154
305.893
305.875
305.605
305.523
305.243
305.33
304.9714
304.9443
304.9184
304.8865
304.8765
304.8525
304.8527
304.8311
304.8312
304.8139
304.8079
304.7867
304.7675
304.7429
304.7112
304.6903
304.6577
304.6511
304.6252
304.6278
304.6100
304.6070
304.5927
304.5819
304.5629
304.5362
304.5141
304.4757
304.4584
304.4229
304.4161
304.3929
304.3961
304.3813
304.3746
304.3655
304.3517
304.3405
304.3124
304.2964
304.2562
304.2445
304.2144
304.2065
304.1890
304.1867
304.1754
304.1690
304.1669
304.1495
304.1417
304.1120
304.1033
304.652
304.544
304.290
304.174
304.49
304.0
303.9942
303.9813
303.9806
303.9595
303.9580
303.9304
303.9208
303.8884
303.8738
303.8532
303.8372
303.8287
303.8174
303.8190
303.8040
303.8112
303.7938
303.7974
303.7769
303.7690
303.7434
303.7243
303.7073
303.6907
303.6904
303.6738
303.6793
303.6641
303.6730
303.6619
303.6620
303.6433
303.6329
303.6163
303.5910
303.5777
303.5523
303.5534
303.5367
303.5482
303.5357
303.5398
303.5354
303.5341
303.5248
303.5066
303.4933
303.4629
303.4572
303.4343
303.4350
303.4210
303.4335
303.4327
303.4343
303.4349
303.4299
303.4288
303.4085
303.4044
303.3731
303.3672
303.3442
303.3408
303.3324
303.3365
303.3342
303.3265
303.3283
303.3135
303.3143
303.2854
303.2797
303.2487
303.2391
303.2190
303.2094
303.2006
303.1944
303.1952
303.1834
303.1892
303.1712
303.1770
303.1555
303.1490
303.1239
303.1089
303.940
303.794
303.780
303.641
303.720
303.605
303.717
303.618
303.661
303.494
303.390
303.238
303.11
302.9869
302.9635
302.9662
302.9490
302.9613
302.9500
302.9537
302.9493
302.9489
302.9375
302.9184
302.9070
302.8761
302.8686
302.8425
302.8426
302.8276
302.8373
302.8320
302.8345
302.8370
302.8271
302.8224
302.8009
302.7970
302.7647
302.7594
302.7366
302.7358
302.7282
302.7311
302.7297
302.7245
302.7301
302.7163
302.7197
302.6956
302.6925
302.6634
302.6554
302.6391
302.6298
302.6247
302.6184
302.6251
302.6144
302.6237
302.6087
302.6159
302.5979
302.5936
302.5733
302.5556
302.5419
302.5280
302.5306
302.5166
302.5300
302.5202
302.5323
302.5263
302.5313
302.5219
302.5134
302.5045
302.4812
302.4734
302.4532
302.4610
302.4493
302.4667
302.4613
302.4671
302.4672
302.4676
302.4632
302.4434
302.4374
302.4069
302.4038
302.3801
302.3821
302.3726
302.3799
302.3793
302.3799
302.3857
302.3728
302.3747
302.3538
302.3542
302.3229
302.3154
302.2996
302.2987
302.2970
302.2969
302.3011
302.2940
302.3069
302.2943
302.3024
302.2828
302.2811
302.2603
302.2497
302.2358
302.2236
302.2247
302.2122
302.2239
302.2137
302.2247
302.2131
302.2182
302.2068
302.1987
302.1840
302.1606
302.1504
302.1286
302.1335
302.1170
302.1316
302.1228
302.1280
302.1274
302.1293
302.1203
302.1014
302.936
302.636
302.602
302.369
302.363
302.249
302.370
302.380
302.383
302.390
302.281
302.333
302.130
302.113
301.9790
301.9760
301.9614
301.9565
301.9517
301.9516
301.9570
301.9503
301.9617
301.9462
301.9524
301.9322
301.9332
301.9122
301.9008
301.8865
301.8753
301.8799
301.8719
301.8841
301.8738
301.8892
301.8840
301.8916
301.8803
301.8735
301.8622
301.8445
301.8374
301.8179
301.8242
301.8115
301.8302
301.8238
301.8327
301.8351
301.8360
301.8312
301.8179
301.8138
301.7833
301.7814
301.7618
301.7657
301.7553
301.7673
301.7684
301.7731
301.7807
301.7731
301.7767
301.7576
301.7605
301.7335
301.7308
301.7189
301.7172
301.7162
301.7202
301.7282
301.7240
301.7389
301.7283
301.7398
301.7236
301.7229
301.7057
301.6968
301.6867
301.6748
301.6774
301.6676
301.6812
301.6717
301.6875
301.6788
301.6832
301.6725
301.6660
301.6516
301.6304
301.6236
301.6022
301.6076
301.5973
301.6136
301.6061
301.6119
301.6136
301.6160
301.6127
301.5928
301.5871
301.5579
301.5585
301.5409
301.5415
301.5325
301.5425
301.5462
301.5483
301.5563
301.5458
301.5515
301.5324
301.5338
301.5048
301.5010
301.4888
301.4860
301.4858
301.4843
301.4913
301.4817
301.4975
301.4860
301.4938
301.4764
301.4739
301.4573
301.4443
301.4341
301.4182
301.4209
301.4112
301.4299
301.4211
301.4321
301.4302
301.4380
301.4300
301.4202
301.4128
301.3871
301.3858
301.3675
301.3750
301.3629
301.3800
301.3774
301.3843
301.3896
301.3870
301.3855
301.3656
301.3648
301.3341
301.3337
301.3158
301.3176
301.3139
301.3228
301.3249
301.3224
301.3359
301.3253
301.3348
301.3172
301.3188
301.2966
301.2910
301.2784
301.2722
301.2738
301.2695
301.2846
301.2785
301.2944
301.2872
301.2977
301.2885
301.2890
301.2771
301.2612
301.2545
301.2380
301.2479
301.2385
301.2566
301.2508
301.2619
301.2646
301.2712
301.2658
301.2505
301.2445
301.2183
301.2197
301.1986
301.2000
301.1914
301.2084
301.2119
301.2135
301.2195
301.2133
301.2197
301.2023
301.2032
301.1736
301.1706
301.1587
301.1589
301.1584
301.1629
301.1697
301.1657
301.1830
301.1725
301.1835
301.1690
301.1711
301.1550
301.1455
301.1359
301.1267
301.1325
301.1238
301.1413
301.1344
301.1464
301.1422
301.1491
301.1405
301.1330
301.1224
301.989
301.954
301.758
301.840
301.705
301.868
301.862
301.946
301.977
301.974
301.963
301.805
301.813
301.521
301.512
301.327
301.382
301.356
301.451
301.479
301.476
301.607
301.527
301.611
301.425
301.479
301.269
301.219
301.112
301.64
301.86
301.53
301.181
301.105
301.276
301.194
301.295
301.205
301.187
301.65
300.9914
300.9858
300.9705
300.9811
300.9714
300.9935
300.9904
301.44
301.93
301.182
301.159
301.60
301.67
300.9829
300.9847
300.9684
300.9754
300.9701
300.9877
300.9905
300.9944
301.14
300.9967
301.32
300.9840
300.9870
300.9601
300.9585
300.9479
300.9456
300.9444
300.9465
300.9566
300.9530
300.9681
300.9575
300.9688
300.9576
300.9594
300.9404
300.9312
300.9216
300.9096
300.9187
300.9112
300.9284
300.9194
300.9351
300.9359
300.9449
300.9365
300.9278
300.9213
300.9004
300.8983
300.8769
300.8834
300.8737
300.8909
300.8884
300.8948
300.9000
300.8975
300.8962
300.8761
300.8741
300.8442
300.8437
300.8273
300.8258
300.8229
300.8271
300.8309
300.8298
300.8432
300.8312
300.8388
300.8207
300.8220
300.8019
300.7937
300.7803
300.7725
300.7753
300.7684
300.7817
300.7710
300.7861
300.7806
300.7918
300.7809
300.7731
300.7611
300.7437
300.7382
300.7200
300.7296
300.7184
300.7360
300.7347
300.7472
300.7523
300.7554
300.7553
300.7440
300.7448
300.7171
300.7182
300.7033
300.7108
300.7083
300.7230
300.7278
300.7328
300.7479
300.7413
300.7511
300.7353
300.7411
300.7221
300.7232
300.7148
300.7129
300.7186
300.7201
300.7348
300.7323
300.7514
300.7434
300.7600
300.7493
300.7495
300.7366
300.7231
300.7166
300.7045
300.7150
300.7044
300.7238
300.7194
300.7346
300.7387
300.7436
300.7424
300.7337
300.7305
300.7050
300.7067
300.6883
300.6952
300.6913
300.7084
300.7127
300.7171
300.7259
300.7208
300.7269
300.7091
300.7121
300.6842
300.6824
300.6712
300.6721
300.6704
300.6726
300.6804
300.6767
300.6931
300.6809
300.6901
300.6746
300.6751
300.6585
300.6456
300.6332
300.6193
300.6272
300.6178
300.6338
300.6260
300.6401
300.6354
300.6434
300.6380
300.6269
300.6171
300.5953
300.5942
300.5717
300.5765
300.5679
300.5879
300.5887
300.5947
300.6001
300.5975
300.6001
300.5821
300.5848
300.5571
300.5552
300.5413
300.5438
300.5444
300.5520
300.5567
300.5545
300.5713
300.5615
300.5734
300.5589
300.5637
300.5444
300.5386
300.5305
300.5222
300.5294
300.5261
300.5446
300.5382
300.5566
300.5559
300.5668
300.5625
300.5579
300.5505
300.5321
300.5305
300.5152
300.5275
300.5171
300.5375
300.5382
300.5484
300.5552
300.5581
300.5601
300.5439
300.5472
300.5214
300.5221
300.5072
300.5121
300.5124
300.5252
300.5323
300.5317
300.5463
300.5408
300.5531
300.5368
300.5416
300.5227
300.5209
300.5125
300.5087
300.5139
300.5118
300.5285
300.5220
300.5412
300.5367
300.5501
300.5428
300.5405
300.5321
300.5165
300.5127
300.4981
300.5105
300.5010
300.5208
300.5197
300.5318
300.5390
300.5447
300.5448
300.5309
300.5313
300.5049
300.5077
300.4917
300.4940
300.4920
300.5081
300.5133
300.5146
300.5239
300.5176
300.5268
300.5092
300.5134
300.4879
300.4844
300.4737
300.4698
300.4721
300.4704
300.4831
300.4765
300.4961
300.4891
300.4974
300.4855
300.4875
300.4749
300.4601
300.4549
300.4388
300.4486
300.4409
300.4628
300.4574
300.4703
300.4751
300.4824
300.4809
300.4704
300.4679
300.4423
300.4442
300.4264
300.4325
300.4257
300.4432
300.4478
300.4533
300.4634
300.4574
300.4664
300.4517
300.4586
300.4299
300.4279
300.4200
300.4203
300.4233
300.4268
300.4377
300.4346
300.4541
300.4466
300.4579
300.4479
300.4492
300.4364
300.4276
300.4204
300.4055
300.4131
300.4079
300.4316
300.4256
300.4397
300.4427
300.4518
300.4498
300.4424
300.4371
300.4133
300.4163
300.4012
300.4116
300.4049
300.4212
300.4252
300.4334
300.4436
300.4410
300.4471
300.4303
300.4360
300.4097
300.4115
300.4000
300.4004
300.4028
300.4107
300.4199
300.4152
300.4340
300.4265
300.4400
300.4279
300.4307
300.4151
300.4077
300.4023
300.3910
300.3980
300.3903
300.4091
300.4042
300.4206
300.4203
300.4279
300.4226
300.4165
300.4111
300.3887
300.3868
300.3671
300.3777
300.3694
300.3892
300.3880
300.3941
300.4011
300.3999
300.4010
300.3832
300.3863
300.3583
300.3577
300.3437
300.3448
300.3417
300.3475
300.3589
300.3563
300.3700
300.3609
300.3742
300.3619
300.3657
300.3473
300.3404
300.3345
300.3272
300.3336
300.3273
300.3453
300.3381
300.3565
300.3576
300.3665
300.3594
300.3561
300.3507
300.3302
300.3273
300.3104
300.3211
300.3143
300.3360
300.3365
300.3450
300.3528
300.3564
300.3607
300.3439
300.3477
300.3220
300.3269
300.3157
300.3198
300.3188
300.3297
300.3413
300.3446
300.3612
300.3543
300.3675
300.3533
300.3619
300.3463
300.3414
300.3350
300.3323
300.3391
300.3358
300.3544
300.3499
300.3705
300.3710
300.3855
300.3778
300.3757
300.3713
300.3568
300.3570
300.3445
300.3570
300.3479
300.3708
300.3725
300.3844
300.3945
300.3990
300.4038
300.3940
300.3963
300.3684
300.3736
300.3639
300.3716
300.3718
300.3840
300.3929
300.3971
300.4128
300.4062
300.4197
300.4053
300.4120
300.3934
300.3923
300.3825
300.3796
300.3890
300.3880
300.4030
300.3973
300.4162
300.4121
300.4253
300.4150
300.4107
300.4009
300.3856
300.3828
300.3669
300.3750
300.3633
300.3833
300.3820
300.3941
300.3991
300.4031
300.4011
300.3878
300.3875
300.3588
300.3612
300.3456
300.3516
300.3468
300.3613
300.3646
300.3663
300.3800
300.3735
300.3822
300.3641
300.3689
300.3438
300.3432
300.3342
300.3280
300.3299
300.3283
300.3418
300.3360
300.3527
300.3450
300.3556
300.3463
300.3433
300.3290
300.3157
300.3090
300.2939
300.3045
300.2953
300.3141
300.3088
300.3226
300.3276
300.3340
300.3336
300.3224
300.3199
300.2939
300.2968
300.2801
300.2885
300.2861
300.3009
300.3055
300.3088
300.3216
300.3179
300.3278
300.3104
300.3153
300.2911
300.2912
300.2840
300.2846
300.2845
300.2867
300.3013
300.2967
300.3148
300.3077
300.3194
300.3111
300.3150
300.3035
300.2920
300.2869
300.2736
300.2856
300.2807
300.3038
300.2988
300.3138
300.3201
300.3303
300.3297
300.3196
300.3186
300.2965
300.2998
300.2844
300.2924
300.2861
300.3050
300.3115
300.3177
300.3276
300.3256
300.3332
300.3169
300.3217
300.2953
300.2946
300.2862
300.2868
300.2885
300.2918
300.3024
300.2965
300.3152
300.3088
300.3210
300.3086
300.3094
300.2980
300.2870
300.2800
300.2694
300.2776
300.2695
300.2898
300.2845
300.2989
300.3013
300.3112
300.3065
300.2977
300.2928
300.2687
300.2700
300.2536
300.2621
300.2532
300.2691
300.2706
300.2771
300.2871
300.2833
300.2861
300.2671
300.2727
300.2472
300.2448
300.2313
300.2315
300.2333
300.2383
300.2482
300.2434
300.2616
300.2531
300.2650
300.2521
300.2550
300.2411
300.2337
300.2273
300.2176
300.2250
300.2179
300.2387
300.2326
300.2498
300.2521
300.2622
300.2580
300.2518
300.2467
300.2244
300.2270
300.2115
300.2232
300.2179
300.2371
300.2403
300.2493
300.2598
300.2590
300.2650
300.2491
300.2548
300.2302
300.2334
300.2227
300.2256
300.2278
300.2384
300.2519
300.2498
300.2682
300.2627
300.2796
300.2698
300.2766
300.2624
300.2571
300.2532
300.2477
300.2578
300.2518
300.2736
300.2701
300.2900
300.2926
300.3034
300.2988
300.2954
300.2930
300.2747
300.2732
300.2556
300.2681
300.2619
300.2822
300.2842
300.2909
300.3002
300.3023
300.3056
300.2899
300.2958
300.2710
300.2714
300.2595
300.2634
300.2624
300.2730
300.2828
300.2825
300.3004
300.2922
300.3058
300.2931
300.2987
300.2808
300.2753
300.2678
300.2607
300.2679
300.2622
300.2813
300.2722
300.2900
300.2881
300.2969
300.2883
300.2825
300.2748
300.2537
300.2530
300.2343
300.2418
300.2317
300.2510
300.2526
300.2601
300.2658
300.2674
300.2715
300.2560
300.2577
300.2294
300.2312
300.2196
300.2237
300.2222
300.2288
300.2372
300.2369
300.2527
300.2440
300.2551
300.2397
300.2441
300.2257
300.2188
300.2105
300.2038
300.2135
300.2097
300.2241
300.2175
300.2353
300.2350
300.2479
300.2416
300.2373
300.2303
300.2141
300.2127
300.1976
300.2087
300.1991
300.2202
300.2228
300.2344
300.2412
300.2460
300.2487
300.2347
300.2377
300.2107
300.2159
300.2043
300.2114
300.2109
300.2226
300.2316
300.2322
300.2471
300.2402
300.2528
300.2348
300.2409
300.2216
300.2171
300.2092
300.2026
300.2082
300.2055
300.2223
300.2142
300.2324
300.2284
300.2409
300.2331
300.2303
300.2207
300.2026
300.1999
300.1836
300.1957
300.1882
300.2089
300.2075
300.2192
300.2290
300.2332
300.2333
300.2218
300.2247
300.1995
300.2031
300.1883
300.1938
300.1958
300.2107
300.2169
300.2179
300.2322
300.2270
300.2401
300.2239
300.2275
300.2054
300.2029
300.1954
300.1926
300.1952
300.1914
300.2076
300.2020
300.2208
300.2146
300.2259
300.2179
300.2172
300.2085
300.1909
300.1864
300.1705
300.1822
300.1715
300.1900
300.1874
300.1971
300.2015
300.2055
300.2027
300.1853
300.1834
300.1556
300.1563
300.1390
300.1419
300.1358
300.1487
300.1539
300.1536
300.1619
300.1532
300.1623
300.1434
300.1463
300.1238
300.1170
300.1074
300.1044
300.1067
300.1015
300.1152
300.1069
300.1251
300.1198
300.1315
300.1192
300.1165
300.1086
300.911
300.849
300.688
300.793
300.699
300.901
300.869
300.960
300.1022
300.1090
300.1077
300.945
300.957
300.685
300.725
300.593
300.651
300.619
300.771
300.843
300.875
300.1001
300.932
300.1031
300.871
300.960
300.726
300.704
300.648
300.646
300.680
300.679
300.844
300.780
300.1014
300.1015
300.1164
300.1093
300.1120
300.1045
300.927
300.921
300.791
300.907
300.843
300.1120
300.1121
300.1225
300.1317
300.1386
300.1400
300.1310
300.1321
300.1047
300.1085
300.963
300.1057
300.1007
300.1163
300.1215
300.1241
300.1405
300.1355
300.1451
300.1276
300.1353
300.1129
300.1103
300.1003
300.958
300.982
300.991
300.1143
300.1053
300.1227
300.1181
300.1286
300.1180
300.1174
300.1055
300.896
300.856
300.719
300.799
300.676
300.896
300.854
300.968
300.1004
300.1041
300.1012
300.906
300.888
300.606
300.628
300.453
300.494
300.449
300.606
300.644
300.664
300.774
300.710
300.814
300.636
300.675
300.435
300.415
300.321
300.276
300.308
300.319
300.460
300.374
300.545
300.489
300.590
300.494
300.493
300.353
300.212
300.179
300.46
300.153
300.72
300.300
300.262
300.408
300.487
300.561
300.575
300.478
300.498
300.237
300.288
300.163
300.230
300.214
300.413
300.485
300.547
300.697
300.666
300.794
300.681
300.756
300.555
300.578
300.542
300.560
300.617
300.645
300.816
300.783
300.1018
300.982
300.1124
300.1046
300.1055
300.975
300.855
300.820
300.694
300.814
300.747
300.963
300.946
300.1094
300.1171
300.1262
300.1276
300.1170
300.1169
300.939
300.988
300.862
300.943
300.909
300.1063
300.1141
300.1203
300.1328
300.1269
300.1375
300.1207
300.1260
300.1022
300.995
300.915
300.913
300.953
300.945
300.1074
300.1017
300.1199
300.1112
300.1231
300.1095
300.1089
300.968
300.819
300.759
300.601
300.679
300.580
300.787
300.736
300.851
300.862
300.937
300.923
300.777
300.729
300.478
300.508
300.329
300.387
300.325
300.474
300.522
300.565
300.653
300.577
300.651
300.451
300.513
300.272
300.218
300.97
300.98
300.131
300.130
300.270
300.209
300.385
300.319
300.463
300.350
300.332
300.213
300.99
300.58
299.9920
300.10
299.9920
300.152
300.132
300.280
300.341
300.438
300.415
300.338
300.370
300.142
300.171
300.61
300.192
300.152
300.323
300.416
300.492
300.621
300.585
300.693
300.528
300.602
300.416
300.413
300.312
300.339
300.390
300.418
300.567
300.513
300.712
300.635
300.755
300.655
300.682
300.558
300.440
300.394
300.282
300.396
300.303
300.524
300.516
300.668
300.730
300.841
300.838
300.752
300.779
300.549
300.597
300.470
300.578
300.552
300.774
300.854
300.890
300.1006
300.989
300.1074
300.904
300.978
300.730
300.760
300.679
300.655
300.671
300.698
300.841
300.777
300.957
300.899
300.1022
300.916
300.951
300.840
300.707
300.656
300.555
300.655
300.563
300.777
300.702
300.824
300.855
300.899
300.854
300.729
300.658
300.361
300.327
300.120
300.158
300.56
300.210
300.231
300.188
300.232
300.141
300.175
299.9960
299.9972
299.9676
299.9587
299.9465
299.9423
299.9384
299.9360
299.9465
299.9374
299.9518
299.9438
299.9530
299.9383
299.9393
299.9273
299.9110
299.9043
299.8897
299.8977
299.8880
299.9103
299.9012
299.9091
299.9109
299.9160
299.9086
299.8929
299.8887
299.8584
299.8575
299.8388
299.8426
299.8322
299.8454
299.8497
299.8494
299.8567
299.8488
299.8561
299.8376
299.8421
299.8164
299.8103
299.8012
299.7995
299.8017
299.8009
299.8146
299.8071
299.8270
299.8219
299.8341
299.8254
299.8251
299.8159
299.8057
299.8008
299.7863
299.7972
299.7891
299.8117
299.8077
299.8181
299.8228
299.8291
299.8271
299.8137
299.8110
299.7822
299.7843
299.7672
299.7742
299.7686
299.7812
299.7850
299.7877
299.7992
299.7904
299.7985
299.7807
299.7886
299.7669
299.7636
299.7521
299.7490
299.7539
299.7529
299.7665
299.7574
299.7734
299.7680
299.7803
299.7692
299.7648
299.7524
299.7363
299.7307
299.7142
299.7212
299.7099
299.7333
299.7304
299.7383
299.7398
299.7446
299.7426
299.7276
299.7276
299.6984
299.6982
299.6828
299.6903
299.6857
299.6975
299.7046
299.7057
299.7189
299.7126
299.7242
299.7083
299.7156
299.6955
299.6951
299.6877
299.6853
299.6912
299.6889
299.7075
299.7021
299.7204
299.7175
299.7310
299.7222
299.7214
299.7115
299.6951
299.6930
299.6801
299.6929
299.6841
299.7070
299.7072
299.7189
299.7291
299.7334
299.7350
299.7225
299.7275
299.7014
299.7058
299.6928
299.6997
299.7023
299.7190
299.7282
299.7289
299.7460
299.7424
299.7568
299.7434
299.7507
299.7342
299.7345
299.7302
299.7288
299.7374
299.7364
299.7576
299.7550
299.7768
299.7775
299.7921
299.7863
299.7864
299.7819
299.7672
299.7686
299.7569
299.7719
299.7645
299.7889
299.7922
299.8048
299.8143
299.8215
299.8276
299.8131
299.8195
299.7963
299.8028
299.7925
299.7987
299.7998
299.8132
299.8251
299.8275
299.8435
299.8362
299.8520
299.8405
299.8473
299.8327
299.8281
299.8226
299.8194
299.8297
299.8272
299.8460
299.8414
299.8614
299.8604
299.8746
299.8681
299.8666
299.8629
299.8476
299.8467
299.8288
299.8425
299.8392
299.8619
299.8634
299.8752
299.8847
299.8898
299.8960
299.8825
299.8857
299.8621
299.8693
299.8599
299.8652
299.8656
299.8786
299.8899
299.8916
299.9093
299.9046
299.9183
299.9066
299.9146
299.8986
299.8942
299.8886
299.8833
299.8933
299.8905
299.9094
299.9037
299.9239
299.9256
299.9396
299.9364
299.9324
299.9281
299.9129
299.9166
299.9016
299.9132
299.9083
299.9347
299.9401
299.9526
299.9615
299.9662
299.9737
299.9636
299.9712
299.9479
299.9528
299.9446
299.9541
299.9569
299.9698
299.9827
299.9861
300.46
299.9986
300.142
300.16
300.86
299.9968
299.9943
299.9878
299.9827
299.9949
299.9947
300.150
300.96
300.303
300.309
300.454
300.430
300.404
300.364
300.203
300.225
300.83
300.221
300.162
300.388
300.430
300.556
300.656
300.708
300.764
300.655
300.721
300.460
300.508
300.413
300.497
300.521
300.621
300.715
300.730
300.878
300.803
300.955
300.813
300.853
300.688
300.648
300.578
300.538
300.599
300.558
300.771
300.723
300.905
300.881
300.1001
300.953
300.945
300.892
300.701
300.670
300.511
300.657
300.596
300.809
300.812
300.925
300.1009
300.1056
300.1087
300.950
300.997
300.757
300.787
300.653
300.718
300.720
300.853
300.961
300.966
300.1110
300.1042
300.1206
300.1059
300.1112
300.959
300.922
300.866
300.844
300.916
300.890
300.1088
300.1053
300.1262
300.1258
300.1408
300.1355
300.1360
300.1327
300.1175
300.1178
300.1048
300.1194
300.1138
300.1389
300.1402
300.1519
300.1635
300.1713
300.1770
300.1659
300.1702
300.1474
300.1532
300.1413
300.1488
300.1499
300.1654
300.1737
300.1745
300.1895
300.1830
300.1974
300.1829
300.1900
300.1703
300.1675
300.1606
300.1582
300.1635
300.1607
300.1787
300.1723
300.1916
300.1890
300.2019
300.1954
300.1950
300.1869
300.1724
300.1712
300.1547
300.1679
300.1626
300.1856
300.1840
300.1947
300.2018
300.2062
300.2086
300.1932
300.1947
300.1672
300.1687
300.1549
300.1602
300.1579
300.1666
300.1725
300.1759
300.1911
300.1828
300.1920
300.1759
300.1819
300.1626
300.1596
300.1499
300.1454
300.1522
300.1501
300.1654
300.1592
300.1779
300.1730
300.1853
300.1772
300.1766
300.1708
300.1556
300.1512
300.1363
300.1481
300.1388
300.1610
300.1600
300.1699
300.1741
300.1785
300.1773
300.1636
300.1648
300.1356
300.1361
300.1227
300.1308
300.1248
300.1388
300.1458
300.1461
300.1595
300.1546
300.1662
300.1501
300.1554
300.1340
300.1301
300.1240
300.1219
300.1260
300.1250
300.1422
300.1351
300.1523
300.1484
300.1609
300.1534
300.1535
300.1452
300.1281
300.1250
300.1119
300.1215
300.1107
300.1341
300.1295
300.1411
300.1474
300.1531
300.1504
300.1389
300.1411
300.1139
300.1173
300.1024
300.1083
300.1062
300.1217
300.1297
300.1318
300.1444
300.1386
300.1518
300.1385
300.1462
300.1237
300.1234
300.1174
300.1166
300.1206
300.1216
300.1381
300.1330
300.1529
300.1488
300.1628
300.1545
300.1562
300.1481
300.1318
300.1284
300.1149
300.1259
300.1179
300.1415
300.1367
300.1481
300.1564
300.1641
300.1628
300.1502
300.1525
300.1266
300.1303
300.1157
300.1196
300.1163
300.1348
300.1423
300.1436
300.1546
300.1483
300.1602
300.1454
300.1527
300.1299
300.1303
300.1227
300.1219
300.1280
300.1264
300.1389
300.1331
300.1529
300.1455
300.1559
300.1449
300.1458
300.1361
300.1223
300.1166
300.1021
300.1127
300.1032
300.1249
300.1217
300.1349
300.1394
300.1456
300.1459
300.1349
300.1327
300.1069
300.1113
300.953
300.1015
300.959
300.1103
300.1176
300.1218
300.1307
300.1245
300.1333
300.1171
300.1240
300.1004
300.986
300.876
300.862
300.888
300.886
300.997
300.930
300.1133
300.1029
300.1143
300.1021
300.1007
300.931
300.809
300.737
300.592
300.696
300.625
300.852
300.831
300.953
300.1002
300.1085
300.1089
300.997
300.1003
300.768
300.805
300.655
300.754
300.721
300.902
300.967
300.1023
300.1158
300.1130
300.1231
300.1086
300.1181
300.962
300.981
300.899
300.897
300.944
300.996
300.1148
300.1093
300.1284
300.1239
300.1405
300.1318
300.1343
300.1250
300.1164
300.1128
300.1015
300.1143
300.1069
300.1306
300.1304
300.1471
300.1499
300.1614
300.1632
300.1546
300.1561
300.1332
300.1383
300.1252
300.1358
300.1356
300.1537
300.1593
300.1634
300.1755
300.1716
300.1816
300.1659
300.1715
300.1482
300.1497
300.1401
300.1387
300.1435
300.1459
300.1576
300.1524
300.1721
300.1647
300.1784
300.1698
300.1707
300.1552
300.1446
300.1407
300.1295
300.1389
300.1281
300.1485
300.1452
300.1611
300.1636
300.1734
300.1706
300.1619
300.1608
300.1363
300.1395
300.1228
300.1298
300.1228
300.1411
300.1427
300.1454
300.1531
300.1489
300.1567
300.1387
300.1425
300.1157
300.1157
300.1075
300.1080
300.1090
300.1094
300.1220
300.1196
300.1390
300.1300
300.1415
300.1328
300.1344
300.1251
300.1153
300.1074
300.962
300.1089
300.1015
300.1220
300.1178
300.1340
300.1372
300.1468
300.1457
300.1376
300.1361
300.1155
300.1183
300.1015
300.1110
300.1044
300.1225
300.1291
300.1354
300.1431
300.1392
300.1492
300.1343
300.1402
300.1156
300.1150
300.1042
300.1060
300.1094
300.1139
300.1260
300.1214
300.1407
300.1337
300.1471
300.1375
300.1410
300.1313
300.1245
300.1168
300.1058
300.1167
300.1115
300.1334
300.1279
300.1429
300.1443
300.1528
300.1504
300.1416
300.1377
300.1138
300.1153
300.985
300.1070
300.999
300.1158
300.1205
300.1253
300.1330
300.1296
300.1358
300.1210
300.1282
300.1019
300.1006
300.891
300.920
300.946
300.1002
300.1108
300.1060
300.1240
300.1162
300.1312
300.1193
300.1217
300.1110
300.1014
300.958
300.863
300.946
300.863
300.1079
300.1022
300.1156
300.1156
300.1246
300.1219
300.1138
300.1073
300.859
300.896
300.707
300.792
300.719
300.907
300.935
300.1011
300.1109
300.1107
300.1174
300.1011
300.1069
300.823
300.846
300.753
300.785
300.828
300.900
300.1004
300.964
300.1154
300.1103
300.1275
300.1163
300.1191
300.1056
300.1006
300.949
300.855
300.963
300.887
300.1096
300.1040
300.1187
300.1204
300.1315
300.1302
300.1250
300.1213
300.997
300.1015
300.852
300.979
300.930
300.1122
300.1148
300.1223
300.1333
300.1347
300.1436
300.1285
300.1344
300.1101
300.1135
300.1057
300.1064
300.1074
300.1150
300.1278
300.1255
300.1424
300.1339
300.1445
300.1330
300.1401
300.1234
300.1160
300.1095
300.1007
300.1103
300.1021
300.1208
300.1166
300.1336
300.1352
300.1449
300.1390
300.1315
300.1271
300.1064
300.1060
300.865
300.960
300.884
300.1078
300.1098
300.1154
300.1224
300.1210
300.1272
300.1119
300.1156
300.885
300.898
300.793
300.821
300.803
300.852
300.950
300.902
300.1042
300.958
300.1072
300.908
300.944
300.787
300.693
300.587
300.490
300.567
300.494
300.691
300.616
300.768
300.761
300.877
300.831
300.746
300.699
300.502
300.507
300.339
300.443
300.374
300.582
300.617
300.693
300.765
300.763
300.831
300.685
300.739
300.476
300.488
300.366
300.400
300.404
300.458
300.539
300.516
300.690
300.589
300.707
300.564
300.602
300.445
300.391
300.314
300.218
300.287
300.221
300.435
300.364
300.523
300.539
300.677
300.646
300.589
300.561
300.373
300.392
300.244
300.377
300.313
300.523
300.575
300.666
300.766
300.777
300.840
300.721
300.788
300.525
300.546
300.440
300.491
300.519
300.619
300.724
300.700
300.873
300.812
300.967
300.829
300.874
300.722
300.666
300.610
300.541
300.608
300.536
300.743
300.706
300.877
300.854
300.962
300.928
300.885
300.841
300.632
300.625
300.460
300.581
300.492
300.682
300.700
300.795
300.863
300.824
300.868
300.724
300.745
300.480
300.505
300.375
300.390
300.401
300.481
300.562
300.539
300.691
300.592
300.718
300.578
300.591
300.414
300.348
300.275
300.181
300.234
300.158
300.341
300.273
300.431
300.428
300.517
300.447
300.407
300.363
300.138
300.122
299.9939
300.44
299.9953
300.159
300.166
300.215
300.289
300.302
300.354
300.182
300.222
299.9973
300.9
299.9891
299.9920
299.9944
300.25
300.115
300.110
300.286
300.195
300.357
300.242
300.295
300.151
300.90
300.36
299.9974
300.66
300.21
300.216
300.170
300.361
300.380
300.502
300.476
300.441
300.422
300.256
300.269
300.115
300.259
300.213
300.434
300.492
300.605
300.689
300.694
300.777
300.664
300.727
300.468
300.499
300.399
300.468
300.477
300.566
300.653
300.646
300.825
300.753
300.902
300.741
300.787
300.669
300.614
300.511
300.432
300.528
300.476
300.657
300.594
300.755
300.728
300.835
300.814
300.757
300.666
300.453
300.472
300.331
300.438
300.358
300.568
300.581
300.682
300.747
300.746
300.799
300.650
300.673
300.394
300.415
300.302
300.328
300.323
300.399
300.474
300.453
300.594
300.514
300.642
300.482
300.519
300.347
300.296
300.219
300.116
300.181
300.126
300.305
300.248
300.398
300.361
300.461
300.416
300.374
300.285
300.78
300.87
299.9929
300.33
299.9956
300.180
300.185
300.279
300.385
300.407
300.463
300.328
300.372
300.133
300.161
300.50
300.102
300.116
300.241
300.342
300.328
300.503
300.454
300.616
300.484
300.532
300.380
300.350
300.305
300.231
300.332
300.293
300.481
300.416
300.613
300.618
300.712
300.670
300.663
300.618
300.425
300.441
300.279
300.406
300.351
300.578
300.579
300.701
300.801
300.832
300.909
300.779
300.829
300.596
300.645
300.557
300.604
300.633
300.744
300.838
300.850
300.1011
300.914
300.1069
300.963
300.1011
300.851
300.805
300.736
300.676
300.765
300.721
300.894
300.826
300.1015
300.995
300.1103
300.1026
300.975
300.927
300.736
300.708
300.499
300.619
300.567
300.761
300.737
300.842
300.890
300.895
300.944
300.794
300.804
300.524
300.553
300.429
300.467
300.454
300.541
300.605
300.592
300.730
300.611
300.738
300.598
300.632
300.449
300.395
300.303
300.219
300.303
300.260
300.417
300.338
300.520
300.504
300.633
300.564
300.503
300.436
300.268
300.253
300.61
300.173
300.101
300.323
300.324
300.416
300.472
300.511
300.570
300.438
300.480
300.202
300.229
300.100
300.160
300.156
300.256
300.338
300.333
300.489
300.386
300.523
300.391
300.451
300.286
300.249
300.166
300.87
300.184
300.148
300.321
300.267
300.463
300.455
300.574
300.516
300.470
300.411
300.249
300.223
300.72
300.195
300.118
300.320
300.330
300.444
300.512
300.528
300.570
300.438
300.491
300.234
300.255
300.125
300.201
300.226
300.330
300.420
300.407
300.578
300.523
300.664
300.527
300.563
300.407
300.389
300.317
300.242
300.322
300.278
300.463
300.410
300.593
300.552
300.678
300.624
300.594
300.527
300.357
300.347
300.177
300.289
300.185
300.396
300.401
300.480
300.538
300.555
300.565
300.406
300.446
300.177
300.196
300.46
300.90
300.75
300.180
300.273
300.274
300.405
300.311
300.449
300.300
300.339
300.171
300.130
300.27
299.9968
300.67
300.10
300.157
300.82
300.273
300.249
300.359
300.276
300.230
300.186
300.19
299.9975
299.9779
299.9893
299.9800
299.9988
299.9972
300.66
300.102
300.104
300.128
299.9962
299.9991
299.9722
299.9773
299.9650
299.9677
299.9642
299.9756
299.9849
299.9865
300.13
299.9897
300.30
299.9920
299.9990
299.9830
299.9765
299.9683
299.9652
299.9744
299.9712
299.9895
299.9828
300.42
300.27
300.166
300.131
300.94
300.61
299.9936
299.9939
299.9765
299.9901
299.9846
300.79
300.101
300.214
300.286
300.332
300.411
300.277
300.310
300.68
300.133
300.16
300.72
300.76
300.195
300.276
300.279
300.441
300.371
300.508
300.366
300.452
300.285
300.227
300.130
300.83
300.173
300.136
300.311
300.237
300.410
300.394
300.519
300.479
300.425
300.345
300.179
300.191
300.27
300.145
300.68
300.270
300.305
300.411
300.467
300.482
300.524
300.395
300.429
300.160
300.188
300.35
300.97
300.91
300.179
300.258
300.271
300.409
300.303
300.417
300.264
300.319
300.157
300.103
300.17
299.9949
300.24
299.9964
300.128
300.47
300.220
300.178
300.288
300.234
300.184
300.104
299.9921
299.9928
299.9777
299.9897
299.9826
300.15
300.28
300.156
300.227
300.261
300.300
300.187
300.237
299.9988
300.19
299.9891
299.9960
299.9989
300.121
300.198
300.208
300.366
300.303
300.472
300.338
300.402
300.242
300.236
300.165
300.122
300.208
300.164
300.353
300.299
300.493
300.471
300.583
300.541
300.528
300.469
300.285
300.275
300.114
300.240
300.167
300.367
300.355
300.466
300.521
300.549
300.578
300.436
300.463
300.204
300.251
300.111
300.154
300.131
300.259
300.343
300.340
300.475
300.379
300.507
300.375
300.426
300.226
300.172
300.113
300.68
300.134
300.75
300.234
300.165
300.361
300.330
300.430
300.368
300.353
300.283
300.96
300.81
299.9908
300.35
299.9950
300.156
300.144
300.244
300.294
300.328
300.355
300.208
300.242
299.9985
300.27
299.9899
299.9942
299.9906
299.9994
300.83
300.83
300.204
300.89
300.214
300.62
300.123
299.9945
299.9866
299.9773
299.9718
299.9822
299.9794
299.9955
299.9894
300.85
300.92
300.238
300.187
300.160
300.99
299.9942
299.9954
299.9803
299.9910
299.9843
300.84
300.103
300.188
300.254
300.308
300.374
300.235
300.260
300.16
300.61
299.9945
300.29
300.14
300.115
300.183
300.196
300.364
300.284
300.411
300.267
300.339
300.190
300.155
300.71
300.25
300.139
300.115
300.273
300.228
300.435
300.410
300.543
300.493
300.453
300.379
300.217
300.219
300.79
300.204
300.102
300.316
300.346
300.454
300.523
300.561
300.582
300.450
300.496
300.239
300.271
300.142
300.210
300.235
300.336
300.401
300.411
300.570
300.497
300.645
300.482
300.529
300.347
300.340
300.272
300.215
300.277
300.240
300.433
300.371
300.546
300.523
300.653
300.583
300.557
300.479
300.312
300.309
300.147
300.271
300.162
300.345
300.336
300.453
300.498
300.499
300.504
300.382
300.413
300.127
300.160
300.14
300.75
300.82
300.194
300.266
300.285
300.437
300.381
300.529
300.396
300.455
300.298
300.277
300.216
300.178
300.257
300.245
300.436
300.397
300.590
300.554
300.694
300.654
300.653
300.582
300.418
300.409
300.274
300.420
300.347
300.563
300.554
300.672
300.750
300.792
300.845
300.721
300.744
300.506
300.582
300.456
300.514
300.542
300.717
300.836
300.860
300.996
300.936
300.1088
300.976
300.1068
300.897
300.851
300.791
300.788
300.888
300.871
300.1032
300.967
300.1183
300.1171
300.1307
300.1267
300.1273
300.1189
300.1040
300.1037
300.886
300.1010
300.932
300.1152
300.1141
300.1251
300.1293
300.1330
300.1376
300.1257
300.1253
300.977
300.1036
300.894
300.939
300.916
300.1039
300.1101
300.1105
300.1217
300.1127
300.1257
300.1113
300.1136
300.915
300.883
300.785
300.717
300.772
300.730
300.863
300.784
300.957
300.876
300.996
300.916
300.855
300.748
300.591
300.550
300.361
300.469
300.377
300.584
300.580
300.703
300.729
300.762
300.809
300.694
300.706
300.443
300.474
300.341
300.410
300.403
300.509
300.570
300.624
300.754
300.662
300.794
300.639
300.668
300.490
300.481
300.389
300.330
300.397
300.388
300.542
300.473
300.649
300.595
300.741
300.686
300.642
300.545
300.412
300.392
300.233
300.361
300.293
300.507
300.485
300.608
300.682
300.744
300.786
300.648
300.670
300.423
300.469
300.332
300.394
300.381
300.542
300.608
300.627
300.768
300.719
300.864
300.706
300.739
300.540
300.548
300.470
300.427
300.479
300.451
300.611
300.566
300.751
300.668
300.793
300.722
300.713
300.624
300.477
300.433
300.269
300.384
300.289
300.485
300.454
300.564
300.623
300.664
300.673
300.534
300.538
300.278
300.312
300.129
300.187
300.171
300.308
300.360
300.369
300.473
300.371
300.507
300.387
300.409
300.180
300.153
300.64
300.42
300.73
300.38
300.190
300.129
300.321
300.254
300.366
300.298
300.278
300.187
300.20
299.9977
299.9820
299.9925
299.9841
300.63
300.23
300.106
300.151
300.198
300.235
300.85
300.62
299.9819
299.9872
299.9709
299.9758
299.9736
299.9844
299.9903
299.9914
300.20
299.9907
300.16
299.9862
299.9901
299.9683
299.9645
299.9553
299.9520
299.9584
299.9575
299.9729
299.9666
299.9891
299.9846
299.9961
299.9898
299.9903
299.9826
299.9671
299.9646
299.9481
299.9602
299.9548
299.9783
299.9763
299.9881
299.9948
300.17
300.76
299.9963
299.9968
299.9698
299.9765
299.9650
299.9725
299.9707
299.9841
299.9920
299.9953
300.70
299.9987
300.127
299.9999
300.48
299.9844
299.9827
299.9746
299.9711
299.9777
299.9753
299.9908
299.9845
300.43
299.9993
300.134
300.59
300.48
299.9952
299.9808
299.9777
299.9616
299.9735
299.9658
299.9869
299.9841
299.9957
300.29
300.72
300.102
299.9974
299.9993
299.9748
299.9796
299.9634
299.9722
299.9740
299.9877
299.9923
299.9963
300.116
300.40
300.177
300.41
300.116
299.9934
299.9922
299.9855
299.9822
299.9906
299.9901
300.57
299.9996
300.188
300.135
300.259
300.203
300.198
300.94
299.9946
299.9907
299.9740
299.9850
299.9768
299.9956
299.9929
300.59
300.113
300.134
300.132
299.9999
300.22
299.9765
299.9795
299.9611
299.9675
299.9692
299.9841
299.9903
299.9913
300.55
300.6
300.150
300.16
300.47
299.9836
299.9831
299.9779
299.9743
299.9807
299.9763
299.9913
299.9881
300.87
300.17
300.137
300.70
300.57
299.9988
299.9832
299.9794
299.9634
299.9761
299.9686
299.9860
299.9839
299.9971
300.22
300.45
300.72
299.9960
299.9958
299.9706
299.9772
299.9623
299.9695
299.9697
299.9836
299.9911
299.9929
299.9961
299.9735
299.9739
299.9501
299.9403
299.8997
299.8766
299.8486
299.8226
299.8056
299.7774
299.7651
299.7311
299.7241
299.6930
299.6717
299.6330
299.5981
299.5563
299.5041
299.4642
299.4060
299.3735
299.3220
299.2943
299.2453
299.2027
299.1542
299.1011
299.468
298.9700
298.9036
298.8094
298.7415
298.6543
298.5780
298.4958
298.4175
298.3362
298.2409
298.1637
298.545
297.9638
297.8468
297.7387
297.6119
297.4811
297.3526
297.2131
297.918
296.9500
296.8333
296.6870
296.5512
296.4077
296.2568
296.1020
295.9260
295.7633
295.5672
295.3966
295.2095
295.252
294.8442
294.6585
294.4820
294.2810
294.1011
293.8951
293.7009
293.4895
293.2710
293.499
292.8076
292.5880
292.3441
292.1224
291.8922
291.6669
291.4340
291.1902
290.9649
290.7118
290.4774
290.2172
289.9602
289.6941
289.4141
289.1537
288.8702
288.6097
288.3380
288.775
287.8125
287.5325
287.2732
286.9848
286.7170
286.4266
286.1364
285.8438
285.5278
285.2399
284.9344
284.6477
284.3557
284.615
283.7783
283.4736
283.1923
282.8928
282.5986
282.3002
281.9824
281.6810
281.3498
281.419
280.7248
280.4052
280.1081
279.7890
279.5006
279.1887
278.8811
278.5809
278.2577
277.9602
277.6317
277.3124
276.9871
276.6464
276.3350
276.22
275.6844
275.3658
275.409
274.7379
274.4076
274.1013
273.7866
273.4606
273.1473
272.8075
272.4881
272.1490
271.8058
271.4833
271.1398
270.8210
270.4982
270.1708
269.8617
269.5280
269.2173
268.9003
268.5692
268.2540
267.9110
267.5851
267.2494
266.8999
266.5777
266.2322
265.9018
265.5807
265.2435
264.9397
264.6068
264.2830
263.9718
263.6341
263.3219
262.9869
262.6457
262.3164
261.9561
261.6316
261.2989
260.9536
260.6371
260.3040
259.9874
259.6696
259.3321
259.282
258.7095
258.3783
258.633
257.7202
257.3955
257.650
256.7095
256.3905
256.542
255.7187
255.4080
255.742
254.7707
254.4537
254.1211
253.8212
253.5050
253.1797
252.8692
252.5294
252.2057
251.8778
251.5255
251.2123
250.8818
250.5440
250.2349
249.9060
249.5955
249.2906
248.9609
248.6606
248.3544
248.228
247.7188
247.3915
247.574
246.7432
246.3955
246.696
245.7497
245.4100
245.965
244.7848
244.4521
244.1575
243.8386
243.5170
243.2257
242.9089
242.5882
242.2783
241.9379
241.6164
241.2965
240.9429
240.6300
240.3057
239.9641
239.6540
239.3378
239.97
238.7186
238.3962
238.725
237.7786
237.4610
237.1410
236.8336
236.4949
236.1701
235.8511
235.4948
235.1735
234.8570
234.5187
234.2033
233.8911
233.5546
233.2591
232.9485
232.6210
232.3287
232.263
231.6923
231.3901
231.668
230.7289
230.4181
230.834
229.7352
229.4259
229.961
228.7576
228.4519
228.1381
227.8111
227.5205
227.1975
226.8706
226.5834
226.2758
225.9459
225.6437
225.3165
224.9721
224.6609
224.3234
223.9705
223.6623
223.3353
222.9948
222.6860
222.3742
222.391
221.7444
221.4313
221.1022
220.8117
220.5109
220.1763
219.8661
219.5502
219.2129
218.8920
218.5723
218.2147
217.8864
217.5742
217.2372
216.9071
216.6051
216.2854
215.9624
215.6715
215.3495
215.242
214.7400
214.4390
214.1043
213.7994
213.4810
213.1356
212.8184
212.5025
212.1458
211.8174
211.5088
211.1711
210.8320
210.5292
210.2157
209.8869
209.5988
209.2861
208.9551
208.6623
208.3708
208.410
207.7184
207.4111
207.806
206.7428
206.4340
206.975
205.7418
205.4368
205.1175
204.7726
204.4492
204.1517
203.8282
203.5054
203.2196
202.9067
202.5827
202.2976
202.56
201.6737
201.3550
201.520
200.7239
200.3862
200.803
199.7542
199.3964
199.847
198.7740
198.4311
198.955
197.8005
197.4961
197.1614
196.8697
196.5771
196.2515
195.9396
195.6603
195.3580
195.227
194.7182
194.4102
194.709
193.7388
193.4332
193.979
192.7396
192.4306
192.1199
191.7781
191.4429
191.1456
190.8377
190.5007
190.2041
189.9224
189.5970
189.2737
188.9944
188.7005
188.3652
188.433
187.7499
187.4283
187.827
186.7646
186.4552
186.1057
185.7551
185.4581
185.1422
184.7946
184.4648
184.1721
183.8690
183.5368
183.2422
182.9589
182.6364
182.3146
182.369
181.7494
181.4227
181.950
180.8018
180.4881
180.1462
179.8152
179.5130
179.1856
178.8243
178.5023
178.2028
177.8787
177.5343
177.2194
176.9306
176.6215
176.2876
176.41
175.7241
175.4006
175.774
174.7989
174.5101
174.1859
173.8568
173.5615
173.2581
172.9273
172.5874
172.2803
171.9690
171.6128
171.2638
170.9684
170.6548
170.3143
169.9861
169.6854
169.3901
169.697
168.7396
168.4635
168.1811
167.8550
167.5322
167.2534
166.9680
166.6557
166.3225
166.159
165.7176
165.3936
165.447
164.7268
164.4257
164.951
163.7283
163.3996
163.1082
162.7907
162.4388
162.1116
161.8162
161.5201
161.1995
160.8767
160.6028
160.3180
159.9936
159.6677
159.3780
159.1026
158.8087
158.4687
158.1570
157.8721
157.5614
157.2236
156.8838
156.5799
156.2745
155.9318
155.5708
155.2586
154.9693
154.6517
154.3000
153.9790
153.6818
153.3902
153.788
152.7427
152.4560
152.1844
151.8860
151.5474
151.2376
150.9717
150.6813
150.3677
150.279
149.7203
149.4361
149.1226
148.7790
148.4411
148.1390
147.8377
147.4994
147.1249
146.7933
146.5109
146.1927
145.8600
145.5197
145.2092
144.9191
144.6210
144.3001
143.9713
143.6965
143.4234
143.1257
142.7839
142.4704
142.2010
141.9219
141.6287
141.2836
140.9705
140.6744
140.3749
140.520
139.6990
139.3690
139.699
138.7639
138.4267
138.491
137.7198
137.4411
137.1316
136.8085
136.4504
136.1387
135.8425
135.5525
135.2494
134.9160
134.6082
134.3482
134.753
133.7760
133.4383
133.1325
132.8658
132.5946
132.3032
131.9703
131.6495
131.3563
131.751
130.7646
130.4428
130.962
129.7849
129.4906
129.1813
128.8474
128.4717
128.1415
127.8598
127.5682
127.2476
126.9036
126.5760
126.2813
125.9911
125.6963
125.3962
125.624
124.7577
124.5021
124.2304
123.9389
123.6008
123.2859
123.75
122.7600
122.4690
122.1774
121.8286
121.5244
121.2354
120.9450
120.6304
120.3132
119.9633
119.6445
119.3505
119.517
118.7390
118.3845
118.163
117.6992
117.4241
117.1274
116.8043
116.4692
116.1287
115.8376
115.5416
115.2540
114.9595
114.6557
114.3259
114.427
113.7928
113.5143
113.2224
112.8926
112.5569
112.2711
112.220
111.7560
111.4600
111.1662
110.8151
110.5202
110.2342
109.9449
109.6331
109.3276
108.9853
108.6515
108.3546
108.557
107.7477
107.4305
107.755
106.7015
106.3914
106.1184
105.8390
105.5160
105.2121
104.8609
104.5372
104.2571
103.9656
103.6803
103.3890
103.1001
102.7709
102.4669
102.2129
101.9575
101.6759
101.3908
101.792
100.7475
100.4701
100.2173
99.9656
99.6711
99.3829
99.835
98.7339
98.4497
98.1753
97.8834
97.5761
97.2627
96.9553
96.6057
96.2852
96.3
95.7064
95.3988
95.877
94.7689
94.3862
94.334
93.7418
93.4742
93.1893
92.8609
92.5455
92.2311
91.8726
91.5796
91.3147
91.230
90.7282
90.4337
90.1530
89.8434
89.5135
89.2328
88.9931
88.7352
88.4451
88.1589
87.8698
87.5266
87.2066
86.9433
86.6991
86.4495
86.1601
85.8530
85.5879
85.2690
84.9266
84.6560
84.3883
84.908
83.7804
83.4627
83.1657
82.8692
82.5113
82.1779
81.8897
81.6174
81.3043
80.9780
80.6644
80.3578
79.9897
79.6091
79.3037
79.332
78.7697
78.4766
78.1458
77.8172
77.5344
77.2138
76.8407
76.5377
76.2853
76.70
75.6891
75.3925
75.1082
74.8333
74.5514
74.2127
73.8908
73.6337
73.4037
73.1512
72.8537
72.5575
72.2880
72.237
71.6986
71.3446
71.596
70.8147
70.5639
70.3072
70.246
69.7230
69.4347
69.1819
68.8780
68.4998
68.1779
67.9367
67.6823
67.3923
67.745
66.7765
66.4889
66.2216
65.9575
65.6259
65.2633
64.9554
64.6938
64.4386
64.1544
63.8256
63.5191
63.2422
62.9802
62.7099
62.3630
61.9811
61.6803
61.4590
61.2497
61.250
60.7678
60.4956
60.2291
59.9790
59.7616
59.5544
59.2680
58.9544
58.7280
58.5993
58.4591
58.2653
58.264
57.8051
57.6176
57.4589
57.3119
57.1690
56.9683
56.7334
56.5349
56.4127
56.3258
56.2366
56.942
55.9139
55.7639
55.6586
55.5791
55.4823
55.3328
55.1181
54.9524
54.8793
54.8424
54.7878
54.7264
54.6214
54.5072
54.3937
54.3108
54.2704
54.2247
54.724
53.8774
53.7728
53.7645
53.7617
53.7039
53.5885
53.4491
53.3474
53.2788
53.2342
53.2078
53.1633
53.294
52.8781
52.7996
52.7884
52.7826
52.7485
52.6736
52.5644
52.4847
52.4517
52.4418
52.4205
52.3512
52.1873
52.465
52.118
52.398
52.584
52.650
52.358
51.9701
51.9136
51.8814
51.8811
51.9063
51.8977
51.7755
51.6726
51.6764
51.7615
51.8266
51.8327
51.7822
51.7293
51.7347
51.7695
51.8199
51.8806
51.9020
51.8407
51.7976
51.8252
51.9050
51.9915
52.555
52.478
52.256
52.368
52.949
52.1704
52.2146
52.1791
52.1019
52.1019
52.1722
52.2581
52.3333
52.4046
52.4248
52.4192
52.4194
52.4574
52.5380
52.5906
52.5164
52.4375
52.4639
52.5706
52.6624
52.6914
52.6659
52.6306
52.6248
52.6435
52.6873
52.7436
52.7502
52.6765
52.6146
52.6272
52.6913
52.7463
52.7628
52.7153
52.6771
52.6792
52.7193
52.7621
52.7761
52.6972
52.5866
52.5557
52.6154
52.6946
52.7549
52.7836
52.7729
52.7555
52.7454
52.7737
52.8409
52.8771
52.8043
52.7371
52.7715
52.8791
52.9633
53.11
52.9764
52.9656
52.9946
53.474
53.1107
53.1770
53.1998
53.1587
53.1488
53.2105
53.3130
53.4092
53.4598
53.4457
53.4576
53.5193
53.6092
53.6889
53.6980
53.6292
53.6145
53.6832
53.7853
53.8747
53.9562
53.9807
53.9850
53.9925
54.370
54.1203
54.1730
54.1087
54.405
54.826
54.1914
54.2661
54.2922
54.2626
54.2404
54.2475
54.2745
54.3252
54.3847
54.3626
54.2867
54.2652
54.3131
54.3777
54.4231
54.4134
54.3690
54.3500
54.3773
54.4181
54.4506
54.3911
54.2726
54.2276
54.2729
54.3409
54.3911
54.4177
54.4067
54.3893
54.3822
54.4130
54.4758
54.4929
54.4059
54.3552
54.4151
54.5219
54.5916
54.5993
54.5593
54.5603
54.5978
54.6588
54.7261
54.7782
54.7509
54.7223
54.7607
54.8490
54.9432
55.31
54.9937
54.9917
55.316
55.1074
55.1756
55.1850
55.1095
55.808
55.1390
55.2326
55.3167
55.3929
55.4143
55.4158
55.4220
55.4726
55.5569
55.5861
55.4956
55.4440
55.5071
55.6086
55.6657
55.6739
55.6293
55.6066
55.6116
55.6416
55.6949
55.7137
55.6435
55.5802
55.5924
55.6539
55.7089
55.7116
55.6542
55.6203
55.6338
55.6723
55.7040
55.6723
55.5547
55.4871
55.5220
55.5925
55.6475
55.6797
55.6714
55.6506
55.6375
55.6521
55.7015
55.7115
55.6221
55.5593
55.6093
55.7050
55.7636
55.7680
55.7330
55.7334
55.7637
55.8198
55.8876
55.9173
55.8732
55.8464
55.8921
55.9758
56.648
56.1075
56.957
56.1007
56.1483
56.2229
56.2792
56.2434
56.1724
56.1794
56.2603
56.3449
56.4208
56.4624
56.4611
56.4540
56.4753
56.5415
56.5962
56.5319
56.4478
56.4641
56.5607
56.6328
56.6465
56.6087
56.5770
56.5750
56.5996
56.6505
56.6827
56.6211
56.5518
56.5474
56.5941
56.6389
56.6451
56.5956
56.5592
56.5644
56.5921
56.6137
56.5714
56.4440
56.3728
56.4043
56.4739
56.5259
56.5480
56.5312
56.5031
56.4879
56.5156
56.5726
56.5654
56.4682
56.4327
56.5069
56.6015
56.6463
56.6271
56.6005
56.6139
56.6516
56.7109
56.7725
56.7606
56.7061
56.7046
56.7806
56.8712
56.9475
56.9502
56.9369
56.9597
57.213
57.852
57.1012
57.290
56.9983
57.537
57.1420
57.2229
57.2916
57.3090
57.3065
57.3079
57.3546
57.4272
57.4090
57.3132
57.2937
57.3745
57.4499
57.4765
57.4387
57.3994
57.3817
57.3902
57.4364
57.4780
57.4268
57.3511
57.3351
57.3846
57.4399
57.4519
57.4048
57.3678
57.3677
57.3901
57.4131
57.3758
57.2539
57.1794
57.2105
57.2713
57.3199
57.3379
57.3187
57.2906
57.2736
57.2988
57.3430
57.2998
57.2053
57.1898
57.2717
57.3509
57.3784
57.3466
57.3228
57.3367
57.3815
57.4406
57.4824
57.4483
57.4124
57.4411
57.5200
57.6051
57.6523
57.6334
57.6274
57.6707
57.7394
57.7855
57.7468
57.6747
57.6803
57.7548
57.8312
57.9019
57.9372
57.9381
57.9311
57.9575
58.229
58.544
57.9746
57.9151
57.9598
58.491
58.978
58.868
58.409
58.221
58.305
58.634
58.1072
58.761
57.9884
57.9464
57.9745
58.232
58.473
58.42
57.9537
57.9393
57.9558
57.9799
57.9562
57.8398
57.7552
57.7631
57.8196
57.8643
57.8878
57.8734
57.8534
57.8290
57.8419
57.8874
57.8644
57.7674
57.7430
57.8209
57.9003
57.9298
57.8920
57.8628
57.8686
57.9027
57.9591
58.33
57.9667
57.9253
57.9514
58.247
58.1035
58.1457
58.1254
58.1196
58.1675
58.2363
58.2806
58.2357
58.1727
58.1866
58.2554
58.3295
58.4033
58.4344
58.4307
58.4215
58.4490
58.5056
58.5060
58.4078
58.3655
58.4342
58.5149
58.5446
58.5143
58.4700
58.4525
58.4562
58.4897
58.5247
58.4674
58.3863
58.3707
58.4160
58.4623
58.4645
58.4149
58.3756
58.3707
58.3910
58.4046
58.3392
58.2193
58.1713
58.2048
58.2499
58.2853
58.2815
58.2555
58.2186
58.2051
58.2421
58.2776
58.2035
58.1264
58.1511
58.2418
58.2987
58.2982
58.2569
58.2497
58.2752
58.3179
58.3767
58.3764
58.3265
58.3124
58.3634
58.4461
58.5193
58.5244
58.4971
58.5113
58.5667
58.6214
58.6208
58.5395
58.5116
58.5648
58.6408
58.7112
58.7543
58.7535
58.7328
58.7451
58.8044
58.8513
58.7822
58.7027
58.7316
58.8219
58.8667
58.8515
58.8098
58.7926
58.7854
58.8048
58.8465
58.8166
58.7268
58.6780
58.7005
58.7393
58.7545
58.7116
58.6625
58.6521
58.6693
58.6918
58.6547
58.5337
58.4590
58.4748
58.5320
58.5768
58.5927
58.5596
58.5211
58.5074
58.5376
58.5727
58.5158
58.4236
58.4249
58.5070
58.5677
58.5792
58.5382
58.5256
58.5460
58.5894
58.6426
58.6487
58.5997
58.5767
58.6200
58.7015
58.7829
58.7988
58.7759
58.7852
58.8451
58.9124
58.9195
58.8451
58.8149
58.8632
58.9397
59.88
59.552
59.574
59.396
59.475
59.951
59.1373
59.718
58.9914
59.172
59.1053
59.1559
59.1494
59.1048
59.823
59.836
59.1061
59.1422
59.1111
59.289
58.9879
59.201
59.646
59.840
59.391
58.9873
58.9757
58.9939
59.135
58.9606
58.8331
58.7610
58.7815
58.8313
58.8759
58.8885
58.8558
58.8177
58.8041
58.8380
58.8795
58.8076
58.7200
58.7351
58.8159
58.8688
58.8679
58.8320
58.8222
58.8351
58.8757
58.9324
58.9282
58.8709
58.8569
58.9064
58.9871
59.508
59.428
59.222
59.423
59.963
59.1479
59.1295
59.537
59.438
59.1008
59.1733
59.2406
59.2724
59.2722
59.2647
59.2740
59.3326
59.3590
59.2761
59.2169
59.2623
59.3400
59.3695
59.3342
59.2811
59.2575
59.2602
59.2945
59.3254
59.2731
59.1903
59.1701
59.2039
59.2465
59.2528
59.1982
59.1546
59.1516
59.1763
59.1913
59.1075
58.9866
58.9476
58.9883
59.346
59.709
59.598
59.246
58.9875
58.9869
59.304
59.231
58.9263
58.8695
58.9221
59.27
59.388
59.118
58.9785
58.9817
59.148
59.652
59.1120
59.774
59.242
59.392
59.1090
59.1894
59.2268
59.2069
59.1987
59.2327
59.2861
59.3161
59.2581
59.1983
59.2143
59.2803
59.3488
59.4090
59.4209
59.4103
59.3990
59.4349
59.4883
59.4550
59.3624
59.3533
59.4337
59.4971
59.5065
59.4611
59.4284
59.4196
59.4343
59.4694
59.4614
59.3801
59.3208
59.3308
59.3725
59.4003
59.3658
59.3118
59.2815
59.2851
59.3074
59.2862
59.1676
59.810
59.876
59.1366
59.1797
59.1975
59.1757
59.1404
59.1149
59.1398
59.1819
59.1275
59.351
59.362
59.1194
59.1783
59.1800
59.1398
59.1284
59.1457
59.1791
59.2300
59.2303
59.1690
59.1417
59.1933
59.2738
59.3423
59.3405
59.3224
59.3436
59.3994
59.4538
59.4350
59.3579
59.3411
59.3959
59.4663
59.5322
59.5653
59.5620
59.5433
59.5542
59.6084
59.6201
59.5261
59.4748
59.5303
59.6057
59.6312
59.5960
59.5511
59.5225
59.5248
59.5622
59.5895
59.5209
59.4382
59.4281
59.4694
59.5074
59.5037
59.4457
59.4102
59.4087
59.4286
59.4275
59.3324
59.2121
59.1824
59.2242
59.2657
59.2992
59.2811
59.2478
59.2162
59.2189
59.2530
59.2421
59.1461
59.1086
59.1680
59.2395
59.2642
59.2325
59.2071
59.2167
59.2494
59.3003
59.3390
59.2920
59.2539
59.2829
59.3543
59.4283
59.4450
59.4229
59.4274
59.4734
59.5265
59.5417
59.4668
59.4204
59.4607
59.5306
59.6021
59.6490
59.6552
59.6390
59.6399
59.6880
59.7347
59.6734
59.5934
59.6151
59.6994
59.7474
59.7412
59.6904
59.6568
59.6510
59.6761
59.7151
59.6774
59.5861
59.5401
59.5667
59.6084
59.6175
59.5709
59.5269
59.5210
59.5379
59.5451
59.4808
59.3594
59.3126
59.3521
59.4041
59.4431
59.4367
59.4046
59.3660
59.3554
59.3910
59.3991
59.3016
59.2373
59.2824
59.3632
59.4034
59.3807
59.3472
59.3442
59.3636
59.4133
59.4563
59.4214
59.3744
59.3911
59.4632
59.5393
59.5719
59.5545
59.5575
59.5958
59.6552
59.6841
59.6217
59.5636
59.5886
59.6651
59.7383
59.7939
59.8015
59.7788
59.7675
59.8105
59.8659
59.8143
59.7270
59.7385
59.8173
59.8660
59.8695
59.8211
59.7910
59.7906
59.8164
59.8534
59.8268
59.7408
59.6972
59.7217
59.7613
59.7765
59.7346
59.6891
59.6762
59.6868
59.6975
59.6351
59.5115
59.4512
59.4763
59.5234
59.5579
59.5485
59.5141
59.4830
59.4708
59.5085
59.5259
59.4341
59.3625
59.4042
59.4827
59.5232
59.5107
59.4787
59.4740
59.4978
59.5419
59.5811
59.5412
59.4859
59.4968
59.5635
59.6422
59.6780
59.6532
59.6446
59.6832
59.7394
59.7668
59.7007
59.6406
59.6667
59.7383
59.8075
59.8676
59.8809
59.8681
59.8615
59.9034
59.9595
59.9086
59.8162
59.8144
59.8848
59.9362
59.9295
59.8825
59.8494
59.8382
59.8562
59.8934
59.8638
59.7747
59.7297
59.7511
59.7951
59.8145
59.7658
59.7122
59.6981
59.7145
59.7291
59.6778
59.5571
59.4915
59.5113
59.5591
59.5981
59.6036
59.5739
59.5326
59.5161
59.5489
59.5661
59.4737
59.4005
59.4368
59.5185
59.5536
59.5319
59.4985
59.5003
59.5278
59.5726
59.6094
59.5731
59.5244
59.5362
59.6043
59.6893
59.7299
59.7105
59.7008
59.7347
59.7952
59.8248
59.7593
59.6954
59.7181
59.7888
59.8564
59.9129
59.9205
59.9032
59.8893
59.9320
59.9863
59.9361
59.8436
59.8507
59.9309
59.9865
59.9838
59.9430
59.9134
59.9003
59.9175
59.9549
59.9265
59.8385
59.7901
59.8085
59.8467
59.8594
59.8113
59.7628
59.7508
59.7650
59.7773
59.7176
59.5932
59.5347
59.5671
59.6170
59.6562
59.6582
59.6266
59.5809
59.5712
59.6122
59.6295
59.5352
59.4725
59.5194
59.5996
59.6361
59.6118
59.5787
59.5804
59.6020
59.6457
59.6892
59.6558
59.6030
59.6155
59.6833
59.7593
59.7941
59.7759
59.7813
59.8242
59.8792
59.9070
59.8455
59.7953
59.8259
59.8984
59.9692
60.229
60.319
60.133
60.139
60.614
60.1058
60.428
59.9599
59.9719
60.493
60.954
60.907
60.480
60.184
60.92
60.275
60.666
60.244
59.9386
59.9086
59.9322
59.9740
59.9846
59.9351
59.8953
59.8966
59.9145
59.9228
59.8461
59.7263
59.6849
59.7162
59.7604
59.7891
59.7701
59.7319
59.6974
59.6994
59.7438
59.7399
59.6397
59.5884
59.6433
59.7197
59.7503
59.7199
59.6928
59.7002
59.7303
59.7819
59.8078
59.7590
59.7180
59.7469
59.8231
59.9027
59.9134
59.8845
59.8868
59.9292
59.9831
59.9872
59.9088
59.8751
59.9173
59.9867
60.518
60.910
60.875
60.649
60.737
60.1289
60.1605
60.758
60.41
60.428
60.1177
60.1511
60.1265
60.823
60.624
60.634
60.886
60.1113
60.506
59.9605
59.9380
59.9642
59.9943
59.9939
59.9405
59.9014
59.8963
59.9138
59.9097
59.8093
59.7010
59.6795
59.7214
59.7617
59.7896
59.7703
59.7377
59.7061
59.7105
59.7425
59.7098
59.6091
59.5803
59.6501
59.7146
59.7274
59.6814
59.6601
59.6752
59.6999
59.7449
59.7604
59.6989
59.6641
59.7054
59.7790
59.8438
59.8404
59.8184
59.8342
59.8855
59.9390
59.9272
59.8486
59.8292
59.8789
59.9463
60.139
60.468
60.360
60.140
60.227
60.771
60.879
59.9961
59.9413
59.9884
60.602
60.881
60.536
60.155
59.9954
59.9991
60.284
60.434
59.9705
59.8906
59.8832
59.9204
59.9533
59.9375
59.8821
59.8488
59.8523
59.8713
59.8563
59.7443
59.6458
59.6368
59.6794
59.7153
59.7344
59.7145
59.6802
59.6456
59.6617
59.7006
59.6530
59.5620
59.5572
59.6362
59.6967
59.7081
59.6704
59.6506
59.6632
59.7014
59.7536
59.7527
59.6935
59.6772
59.7232
59.8012
59.8603
59.8500
59.8333
59.8516
59.9070
59.9527
59.9176
59.8399
59.8297
59.8940
59.9689
60.353
60.563
60.481
60.362
60.634
60.1252
60.1099
60.117
59.9784
60.420
60.1055
60.1147
60.683
60.290
60.87
60.135
60.475
60.473
59.9669
59.8956
59.8971
59.9383
59.9701
59.9427
59.8853
59.8593
59.8692
59.8908
59.8650
59.7374
59.6447
59.6482
59.6933
59.7320
59.7433
59.7150
59.6781
59.6497
59.6687
59.6964
59.6230
59.5336
59.5491
59.6345
59.6871
59.6773
59.6364
59.6300
59.6465
59.6866
59.7332
59.7143
59.6530
59.6446
59.7023
59.7903
59.8510
59.8316
59.8097
59.8363
59.8900
59.9300
59.8887
59.8238
59.8263
59.8851
59.9520
60.110
60.265
60.128
59.9991
60.339
60.855
60.602
59.9677
59.9509
60.262
60.865
60.995
60.654
60.411
60.249
60.391
60.752
60.617
59.9721
59.9095
59.9206
59.9654
59.9904
59.9508
59.8961
59.8785
59.8968
59.9133
59.8641
59.7328
59.6656
59.6843
59.7349
59.7758
59.7783
59.7503
59.7155
59.6996
59.7307
59.7520
59.6687
59.5943
59.6310
59.7120
59.7551
59.7362
59.6981
59.6914
59.7146
59.7540
59.7957
59.7664
59.7192
59.7235
59.7798
59.8629
59.9052
59.8818
59.8724
59.9088
59.9665
59.9988
59.9380
59.8841
59.9075
59.9719
60.340
60.920
60.1065
60.904
60.863
60.1269
60.1724
60.1134
60.223
60.301
60.1107
60.1642
60.1611
60.1096
60.722
60.567
60.784
60.1148
60.860
59.9994
59.9554
59.9803
60.249
60.423
59.9892
59.9459
59.9344
59.9511
59.9612
59.8989
59.7759
59.7239
59.7577
59.8015
59.8352
59.8226
59.7857
59.7483
59.7383
59.7713
59.7649
59.6645
59.6124
59.6678
59.7468
59.7801
59.7512
59.7249
59.7313
59.7595
59.8058
59.8386
59.7950
59.7542
59.7820
59.8598
59.9334
59.9490
59.9302
59.9334
59.9745
60.236
60.261
59.9477
59.9098
59.9533
60.229
60.830
60.1219
60.1218
60.1067
60.1108
60.1602
60.1949
60.1176
60.458
60.837
60.1629
60.2027
60.1813
60.1281
60.955
60.934
60.1199
60.1532
60.962
60.87
59.9818
60.96
60.440
60.348
59.9762
59.9324
59.9260
59.9479
59.9540
59.8606
59.7489
59.7260
59.7732
59.8155
59.8380
59.8232
59.7919
59.7645
59.7758
59.8105
59.7672
59.6639
59.6399
59.7138
59.7848
59.7994
59.7504
59.7264
59.7399
59.7769
59.8250
59.8360
59.7783
59.7516
59.7934
59.8748
59.9480
59.9499
59.9279
59.9498
60.23
60.507
60.417
59.9670
59.9503
60.39
60.732
60.1465
60.1791
60.1725
60.1546
60.1649
60.2135
60.2166
60.1250
60.831
60.1401
60.2105
60.2347
60.1971
60.1583
60.1376
60.1485
60.1820
60.1881
60.1061
60.398
60.426
60.813
60.1105
60.800
60.231
59.9975
60.50
60.219
59.9921
59.8671
59.7727
59.7721
59.8162
59.8574
59.8697
59.8443
59.8046
59.7758
59.8024
59.8384
59.7720
59.6850
59.6985
59.7761
59.8320
59.8253
59.7873
59.7868
59.8065
59.8420
59.8863
59.8658
59.8129
59.8093
59.8676
59.9436
59.9906
59.9688
59.9602
59.9911
60.471
60.854
60.381
59.9726
59.9845
60.484
60.1149
60.1792
60.1912
60.1769
60.1672
60.2085
60.2683
60.2411
60.1506
60.1380
60.2103
60.2643
60.2688
60.2207
60.1860
60.1719
60.1868
60.2198
60.1921
60.1031
60.589
60.772
60.1128
60.1245
60.797
60.375
60.281
60.364
60.446
59.9828
59.8589
59.7977
59.8325
59.8843
59.9228
59.9092
59.8733
59.8367
59.8250
59.8528
59.8573
59.7587
59.6917
59.7385
59.8174
59.8543
59.8288
59.7949
59.7957
59.8176
59.8677
59.9091
59.8613
59.8156
59.8350
59.9066
59.9860
60.51
59.9854
59.9846
60.309
60.926
60.1088
60.361
59.9886
60.206
60.846
60.1499
60.1949
60.2022
60.1796
60.1714
60.2159
60.2547
60.1832
60.1138
60.1515
60.2330
60.2751
60.2520
60.2020
60.1790
60.1832
60.2082
60.2377
60.1779
60.935
60.692
60.977
60.1329
60.1318
60.759
60.358
60.335
60.446
60.407
59.9411
59.8254
59.8044
59.8453
59.8917
59.9181
59.8983
59.8619
59.8266
59.8373
59.8826
59.8513
59.7543
59.7266
59.7934
59.8581
59.8743
59.8356
59.8125
59.8176
59.8493
59.8913
59.9009
59.8479
59.8170
59.8549
59.9276
59.9923
59.9922
59.9660
59.9800
60.332
60.837
60.654
59.9883
59.9689
60.264
60.1000
60.1654
60.1872
60.1751
60.1533
60.1707
60.2279
60.2294
60.1312
60.816
60.1438
60.2150
60.2400
60.1939
60.1498
60.1289
60.1296
60.1589
60.1639
60.764
60.80
60.128
60.571
60.853
60.587
60.80
59.9849
59.9965
60.147
59.9915
59.8711
59.7804
59.7872
59.8373
59.8746
59.8827
59.8477
59.8070
59.7876
59.8117
59.8402
59.7636
59.6808
59.6966
59.7721
59.8233
59.8229
59.7832
59.7802
59.8046
59.8413
59.8883
59.8692
59.8176
59.8125
59.8711
59.9503
60.21
59.9860
59.9655
59.9866
60.446
60.781
60.259
59.9565
59.9683
60.337
60.1009
60.1578
60.1683
60.1542
60.1376
60.1719
60.2310
60.1934
60.975
60.869
60.1644
60.2196
60.2179
60.1719
60.1410
60.1324
60.1430
60.1773
60.1508
60.561
60.22
60.161
60.438
60.552
60.142
59.9613
59.9350
59.9427
59.9585
59.9023
59.7755
59.7180
59.7439
59.7927
59.8325
59.8250
59.7906
59.7561
59.7472
59.7801
59.7887
59.6960
59.6306
59.6690
59.7438
59.7827
59.7563
59.7251
59.7226
59.7448
59.7883
59.8271
59.7890
59.7366
59.7512
59.8138
59.8945
59.9296
59.9112
59.9082
59.9505
60.194
60.475
59.9786
59.9315
59.9600
60.303
60.994
60.1524
60.1526
60.1328
60.1230
60.1695
60.2156
60.1521
60.728
60.958
60.1751
60.2216
60.2125
60.1691
60.1426
60.1366
60.1591
60.1924
60.1486
60.578
60.235
60.587
60.1002
60.1047
60.525
60.112
60.85
60.240
60.351
59.9563
59.8405
59.7981
59.8278
59.8664
59.8932
59.8782
59.8401
59.8014
59.7979
59.8334
59.8144
59.7200
59.6855
59.7591
59.8306
59.8495
59.8115
59.7875
59.7983
59.8252
59.8690
59.8882
59.8328
59.7989
59.8259
59.8973
59.9713
59.9766
59.9533
59.9649
60.147
60.637
60.526
59.9685
59.9436
59.9984
60.667
60.1291
60.1673
60.1643
60.1452
60.1575
60.2150
60.2332
60.1426
60.920
60.1458
60.2218
60.2521
60.2214
60.1750
60.1481
60.1415
60.1703
60.1906
60.1151
60.347
60.241
60.640
60.951
60.781
60.236
59.9996
60.46
60.248
60.75
59.8973
59.8027
59.7985
59.8398
59.8784
59.8994
59.8803
59.8418
59.8091
59.8236
59.8584
59.8012
59.7068
59.7048
59.7816
59.8386
59.8396
59.7988
59.7840
59.7948
59.8317
59.8851
59.8744
59.8173
59.8054
59.8576
59.9380
59.9992
59.9889
59.9706
59.9922
60.455
60.896
60.565
59.9821
59.9798
60.414
60.1095
60.1686
60.1827
60.1715
60.1537
60.1756
60.2291
60.2094
60.1157
60.947
60.1724
60.2343
60.2469
60.2013
60.1721
60.1599
60.1765
60.2084
60.1954
60.1085
60.515
60.683
60.1029
60.1243
60.797
60.295
60.110
60.217
60.342
59.9833
59.8587
59.7901
59.8071
59.8526
59.8906
59.8906
59.8597
59.8237
59.8106
59.8434
59.8583
59.7732
59.7040
59.7440
59.8312
59.8752
59.8614
59.8231
59.8127
59.8348
59.8809
59.9185
59.8768
59.8202
59.8267
59.8915
59.9690
60.106
59.9937
59.9930
60.351
60.941
60.1193
60.528
60.74
60.392
60.1104
60.1773
60.2279
60.2331
60.2138
60.2121
60.2575
60.3001
60.2397
60.1609
60.1835
60.2613
60.3074
60.2898
60.2456
60.2158
60.2067
60.2306
60.2677
60.2165
60.1285
60.980
60.1299
60.1636
60.1641
60.1099
60.713
60.711
60.860
60.894
60.45
59.8919
59.8592
59.8990
59.9402
59.9647
59.9382
59.9008
59.8642
59.8657
59.8993
59.8754
59.7699
59.7405
59.8093
59.8838
59.9089
59.8721
59.8541
59.8652
59.9027
59.9511
59.9606
59.9094
59.8810
59.9186
59.9912
60.585
60.586
60.369
60.478
60.982
60.1486
60.1363
60.591
60.412
60.966
60.1646
60.2300
60.2578
60.2466
60.2280
60.2475
60.2988
60.3031
60.2158
60.1778
60.2414
60.3132
60.3347
60.3011
60.2665
60.2455
60.2479
60.2831
60.2922
60.2077
60.1332
60.1302
60.1665
60.1919
60.1559
60.1024
60.789
60.852
60.1009
60.729
59.9586
59.8738
59.8787
59.9252
59.9612
59.9635
59.9351
59.8973
59.8732
59.8964
59.9330
59.8620
59.7684
59.7827
59.8641
59.9179
59.9109
59.8687
59.8577
59.8741
59.9172
59.9615
59.9323
59.8667
59.8581
59.9184
59.9986
60.497
60.342
60.260
60.590
60.1180
60.1583
60.1058
60.433
60.602
60.1263
60.1922
60.2545
60.2658
60.2473
60.2303
60.2634
60.3144
60.2661
60.1713
60.1681
60.2418
60.2957
60.2953
60.2483
60.2217
60.2085
60.2251
60.2625
60.2369
60.1427
60.936
60.1134
60.1536
60.1670
60.1173
60.753
60.651
60.728
60.795
60.118
59.8814
59.8228
59.8519
59.8930
59.9238
59.9169
59.8812
59.8396
59.8250
59.8576
59.8616
59.7702
59.7173
59.7642
59.8392
59.8734
59.8480
59.8139
59.8178
59.8441
59.8868
59.9122
59.8543
59.8088
59.8316
59.8998
59.9801
60.3
59.9686
59.9608
60.53
60.613
60.697
59.9934
59.9472
59.9861
60.582
60.1192
60.1607
60.1527
60.1300
60.1344
60.1861
60.2225
60.1453
60.703
60.1049
60.1829
60.2204
60.2008
60.1541
60.1265
60.1205
60.1422
60.1646
60.984
60.91
59.9875
60.219
60.520
60.442
59.9895
59.9560
59.9570
59.9732
59.9678
59.8733
59.7712
59.7469
59.7865
59.8276
59.8505
59.8300
59.7939
59.7621
59.7656
59.8021
59.7666
59.6676
59.6484
59.7168
59.7803
59.7948
59.7546
59.7356
59.7506
59.7806
59.8212
59.8299
59.7806
59.7568
59.7965
59.8707
59.9363
59.9361
59.9148
59.9293
59.9826
60.301
60.124
59.9380
59.9252
59.9740
60.351
60.1016
60.1279
60.1141
60.847
60.968
60.1563
60.1714
60.794
60.241
60.831
60.1607
60.1877
60.1577
60.1162
60.916
60.909
60.1175
60.1311
60.564
59.9896
59.9832
60.188
60.499
60.267
59.9700
59.9414
59.9441
59.9603
59.9412
59.8294
59.7313
59.7257
59.7728
59.8120
59.8297
59.7995
59.7598
59.7366
59.7615
59.7938
59.7318
59.6492
59.6600
59.7422
59.7976
59.8023
59.7628
59.7477
59.7604
59.7934
59.8454
59.8331
59.7724
59.7598
59.8120
59.8871
59.9421
59.9335
59.9219
59.9526
60.53
60.441
60.15
59.9310
59.9360
59.9995
60.721
60.1424
60.1643
60.1509
60.1377
60.1688
60.2236
60.2005
60.1057
60.866
60.1562
60.2144
60.2199
60.1711
60.1361
60.1254
60.1376
60.1712
60.1558
60.677
60.173
60.363
60.760
60.976
60.565
60.84
59.9923
60.55
60.228
59.9791
59.8579
59.7837
59.8015
59.8527
59.8893
59.8882
59.8565
59.8147
59.7960
59.8251
59.8381
59.7493
59.6777
59.7129
59.7961
59.8359
59.8123
59.7762
59.7750
59.8020
59.8447
59.8844
59.8470
59.7980
59.8110
59.8790
59.9566
59.9867
59.9629
59.9539
59.9932
60.515
60.722
59.9994
59.9376
59.9627
60.314
60.959
60.1479
60.1567
60.1419
60.1384
60.1843
60.2292
60.1678
60.863
60.1062
60.1835
60.2271
60.2123
60.1620
60.1328
60.1313
60.1583
60.1967
60.1578
60.688
60.317
60.571
60.887
60.851
60.315
59.9900
59.9858
60.57
60.66
59.9186
59.7990
59.7646
59.8126
59.8582
59.8874
59.8732
59.8395
59.8079
59.8091
59.8476
59.8308
59.7307
59.6911
59.7563
59.8273
59.8500
59.8085
59.7834
59.7846
59.8109
59.8548
59.8779
59.8225
59.7849
59.8211
59.8933
59.9676
59.9760
59.9544
59.9647
60.146
60.695
60.660
59.9881
59.9621
60.173
60.844
60.1479
60.1794
60.1732
60.1550
60.1642
60.2127
60.2348
60.1416
60.749
60.1173
60.1877
60.2151
60.1841
60.1412
60.1224
60.1293
60.1595
60.1738
60.1041
60.289
60.254
60.593
60.898
60.764
60.190
59.9814
59.9866
60.49
59.9959
59.8859
59.7802
59.7679
59.8120
59.8549
59.8726
59.8482
59.8111
59.7822
59.7924
59.8266
59.7759
59.6827
59.6754
59.7541
59.8161
59.8244
59.7857
59.7733
59.7920
59.8308
59.8793
59.8727
59.8187
59.8012
59.8500
59.9291
59.9847
59.9729
59.9578
59.9831
60.393
60.842
60.450
59.9655
59.9678
60.368
60.998
60.1644
60.1881
60.1805
60.1722
60.2057
60.2665
60.2442
60.1458
60.1181
60.1877
60.2510
60.2678
60.2245
60.1913
60.1824
60.1923
60.2255
60.2159
60.1336
60.791
60.877
60.1257
60.1464
60.1075
60.498
60.291
60.428
60.635
60.210
59.8963
59.8197
59.8430
59.8952
59.9382
59.9446
59.9189
59.8772
59.8554
59.8786
59.8926
59.8083
59.7346
59.7701
59.8467
59.8811
59.8619
59.8210
59.8187
59.8451
59.8878
59.9265
59.8931
59.8422
59.8536
59.9187
59.9917
60.228
60.6
59.9949
60.354
60.958
60.1226
60.527
59.9941
60.198
60.829
60.1526
60.2044
60.2007
60.1765
60.1700
60.2182
60.2636
60.1938
60.1047
60.1179
60.1953
60.2425
60.2402
60.2001
60.1718
60.1644
60.1823
60.2138
60.1708
60.859
60.537
60.762
60.1097
60.1116
60.591
60.133
60.5
60.178
60.226
59.9420
59.8196
59.7710
59.8081
59.8536
59.8832
59.8655
59.8305
59.7957
59.7962
59.8362
59.8179
59.7178
59.6781
59.7428
59.8211
59.8493
59.8171
59.7863
59.7809
59.8109
59.8619
59.8876
59.8273
59.7858
59.8198
59.8913
59.9622
59.9747
59.9563
59.9620
60.59
60.612
60.642
59.9847
59.9586
60.67
60.721
60.1343
60.1657
60.1645
60.1508
60.1622
60.2187
60.2425
60.1541
60.927
60.1362
60.2079
60.2364
60.2035
60.1592
60.1337
60.1275
60.1533
60.1753
60.1048
60.246
60.127
60.469
60.745
60.568
60.100
59.9800
59.9840
60.26
59.9924
59.8838
59.7728
59.7516
59.7947
59.8392
59.8644
59.8375
59.7979
59.7666
59.7769
59.8143
59.7596
59.6606
59.6510
59.7301
59.7858
59.7894
59.7505
59.7393
59.7519
59.7883
59.8436
59.8410
59.7782
59.7588
59.8080
59.8843
59.9449
59.9394
59.9226
59.9408
59.9919
60.335
60.39
59.9213
59.9103
59.9727
60.401
60.1048
60.1232
60.1119
60.924
60.1156
60.1735
60.1586
60.632
60.343
60.1029
60.1654
60.1806
60.1346
60.978
60.883
60.965
60.1317
60.1303
60.409
59.9724
59.9783
60.161
60.398
60.15
59.9459
59.9217
59.9254
59.9452
59.9144
59.7936
59.7143
59.7231
59.7753
59.8201
59.8260
59.7986
59.7637
59.7426
59.7682
59.7969
59.7245
59.6412
59.6663
59.7495
59.8022
59.7966
59.7590
59.7528
59.7733
59.8167
59.8619
59.8384
59.7785
59.7740
59.8351
59.9206
59.9675
59.9481
59.9415
59.9774
60.396
60.757
60.247
59.9652
59.9854
60.585
60.1251
60.1834
60.1939
60.1767
60.1621
60.1997
60.2518
60.2081
60.1182
60.1207
60.1966
60.2481
60.2526
60.2070
60.1752
60.1686
60.1913
60.2235
60.1899
60.1040
60.581
60.835
60.1258
60.1398
60.899
60.409
60.276
60.426
60.532
59.9816
59.8602
59.8134
59.8424
59.8820
59.9138
59.9016
59.8631
59.8231
59.8165
59.8546
59.8617
59.7726
59.7152
59.7658
59.8388
59.8757
59.8448
59.8184
59.8199
59.8462
59.8968
59.9286
59.8856
59.8491
59.8783
59.9464
60.197
60.414
60.170
60.172
60.577
60.1109
60.1147
60.310
59.9990
60.518
60.1277
60.1946
60.2314
60.2331
60.2144
60.2247
60.2726
60.2969
60.2173
60.1546
60.1996
60.2771
60.3072
60.2751
60.2214
60.1927
60.1970
60.2331
60.2622
60.2000
60.1139
60.889
60.1228
60.1591
60.1455
60.882
60.541
60.551
60.754
60.685
59.9619
59.8582
59.8450
59.8919
59.9342
59.9618
59.9379
59.9023
59.8746
59.8845
59.9219
59.8712
59.7723
59.7576
59.8297
59.8887
59.8898
59.8403
59.8226
59.8383
59.8841
59.9390
59.9369
59.8777
59.8637
59.9186
59.9910
60.442
60.337
60.122
60.326
60.805
60.1239
60.980
60.230
60.218
60.807
60.1430
60.2102
60.2345
60.2224
60.2003
60.2206
60.2758
60.2590
60.1593
60.1296
60.1920
60.2560
60.2751
60.2401
60.2059
60.1840
60.1897
60.2268
60.2315
60.1434
60.845
60.987
60.1356
60.1555
60.1140
60.600
60.370
60.437
60.611
60.180
59.8869
59.8037
59.8200
59.8696
59.9122
59.9112
59.8782
59.8377
59.8169
59.8436
59.8704
59.7908
59.7139
59.7448
59.8232
59.8585
59.8421
59.8087
59.8100
59.8292
59.8661
59.9033
59.8678
59.8110
59.8119
59.8729
59.9526
59.9918
59.9701
59.9588
59.9887
60.422
60.719
60.85
59.9517
59.9736
60.396
60.1031
60.1551
60.1621
60.1419
60.1352
60.1757
60.2215
60.1581
60.659
60.707
60.1478
60.2022
60.1941
60.1428
60.1090
60.924
60.1051
60.1357
60.978
60.57
59.9664
59.9828
60.171
60.247
59.9730
59.9313
59.9247
59.9416
59.9534
59.8880
59.7636
59.7121
59.7430
59.7873
59.8214
59.8086
59.7703
59.7314
59.7261
59.7588
59.7483
59.6497
59.5929
59.6471
59.7216
59.7525
59.7278
59.7011
59.7064
59.7330
59.7819
59.8108
59.7665
59.7247
59.7437
59.8100
59.8887
59.9117
59.8946
59.8957
59.9379
59.9921
60.2
59.9240
59.8866
59.9290
59.9966
60.561
60.967
60.996
60.811
60.842
60.1342
60.1675
60.934
60.271
60.672
60.1458
60.1816
60.1642
60.1189
60.877
60.891
60.1211
60.1502
60.884
59.9957
59.9693
60.33
60.405
60.342
59.9753
59.9372
59.9344
59.9507
59.9480
59.8549
59.7413
59.7112
59.7549
59.7999
59.8277
59.8093
59.7744
59.7400
59.7500
59.7941
59.7601
59.6639
59.6434
59.7204
59.7847
59.7941
59.7541
59.7302
59.7323
59.7606
59.8120
59.8249
59.7665
59.7319
59.7708
59.8481
59.9165
59.9207
59.9031
59.9204
59.9750
60.226
60.51
59.9230
59.9098
59.9623
60.258
60.912
60.1207
60.1164
60.1026
60.1163
60.1675
60.1734
60.765
60.235
60.760
60.1449
60.1678
60.1340
60.907
60.685
60.698
60.1046
60.1183
60.408
59.9710
59.9669
60.38
60.363
60.190
59.9649
59.9367
59.9414
59.9599
59.9404
59.8181
59.7158
59.7161
59.7651
59.8094
59.8185
59.7828
59.7420
59.7124
59.7300
59.7622
59.7067
59.6154
59.6195
59.7037
59.7553
59.7533
59.7104
59.6995
59.7188
59.7618
59.8138
59.8061
59.7470
59.7261
59.7725
59.8499
59.9104
59.8980
59.8821
59.9045
59.9556
59.9974
59.9558
59.8849
59.8859
59.9490
60.158
60.815
60.1015
60.913
60.736
60.1070
60.1691
60.1499
60.558
60.306
60.974
60.1602
60.1689
60.1233
60.857
60.715
60.848
60.1152
60.1005
60.133
59.9566
59.9695
60.74
60.298
59.9840
59.9278
59.9037
59.9131
59.9342
59.8970
59.7786
59.7038
59.7159
59.7633
59.8040
59.8033
59.7755
59.7403
59.7284
59.7581
59.7832
59.6998
59.6197
59.6470
59.7254
59.7689
59.7463
59.7092
59.7091
59.7335
59.7752
59.8207
59.7894
59.7344
59.7364
59.8003
59.8860
59.9349
59.9159
59.9010
59.9383
60.32
60.361
59.9760
59.9169
59.9358
60.51
60.697
60.1242
60.1277
60.1043
60.896
60.1330
60.2007
60.1512
60.559
60.596
60.1374
60.1843
60.1837
60.1421
60.1119
60.1046
60.1259
60.1639
60.1371
60.472
60.68
60.306
60.718
60.852
60.398
59.9925
59.9818
59.9963
60.53
59.9321
59.8108
59.7611
59.7873
59.8288
59.8674
59.8628
59.8271
59.7870
59.7803
59.8174
59.8174
59.7205
59.6684
59.7299
59.8109
59.8404
59.8160
59.7938
59.7979
59.8214
59.8618
59.8875
59.8382
59.7897
59.8160
59.8908
59.9656
59.9809
59.9645
59.9680
60.79
60.601
60.713
59.9967
59.9588
60.72
60.793
60.1446
60.1909
60.1925
60.1754
60.1848
60.2361
60.2663
60.1931
60.1277
60.1637
60.2376
60.2664
60.2407
60.1961
60.1681
60.1644
60.1859
60.2131
60.1569
60.708
60.560
60.903
60.1235
60.1108
60.521
60.164
60.180
60.436
60.392
59.9359
59.8286
59.8023
59.8455
59.8867
59.9073
59.8871
59.8542
59.8209
59.8290
59.8637
59.8234
59.7267
59.7100
59.7827
59.8471
59.8603
59.8157
59.7935
59.8084
59.8492
59.9007
59.9096
59.8563
59.8314
59.8747
59.9486
60.144
60.106
59.9928
60.140
60.729
60.1225
60.956
60.169
60.55
60.590
60.1208
60.1874
60.2043
60.1897
60.1756
60.2059
60.2680
60.2590
60.1608
60.1274
60.1943
60.2580
60.2810
60.2442
60.2045
60.1880
60.2008
60.2350
60.2350
60.1494
60.845
60.862
60.1237
60.1494
60.1121
60.574
60.363
60.464
60.621
60.291
59.9058
59.8233
59.8373
59.8902
59.9339
59.9347
59.9010
59.8606
59.8400
59.8733
59.9039
59.8282
59.7498
59.7724
59.8508
59.8952
59.8834
59.8500
59.8424
59.8592
59.9005
59.9366
59.9046
59.8506
59.8523
59.9115
59.9892
60.369
60.196
60.62
60.430
60.1023
60.1312
60.668
60.123
60.326
60.937
60.1587
60.2190
60.2240
60.2088
60.2061
60.2477
60.2982
60.2357
60.1471
60.1558
60.2349
60.2855
60.2775
60.2285
60.1900
60.1809
60.2032
60.2431
60.2102
60.1231
60.842
60.1078
60.1489
60.1586
60.1118
60.725
60.642
60.803
60.892
60.111
59.8931
59.8510
59.8839
59.9271
59.9573
59.9397
59.9044
59.8724
59.8694
59.9077
59.8974
59.7963
59.7508
59.8120
59.8829
59.9113
59.8773
59.8584
59.8663
59.8937
59.9444
59.9655
59.9117
59.8684
59.9019
59.9834
60.586
60.642
60.366
60.415
60.893
60.1384
60.1323
60.515
60.128
60.558
60.1257
60.1942
60.2383
60.2378
60.2160
60.2208
60.2728
60.2919
60.2019
60.1441
60.1906
60.2603
60.2898
60.2618
60.2193
60.1943
60.2003
60.2289
60.2385
60.1618
60.826
60.686
60.994
60.1263
60.1084
60.506
60.177
60.210
60.385
60.284
59.9195
59.8191
59.8104
59.8567
59.8966
59.9123
59.8864
59.8480
59.8201
59.8352
59.8686
59.8146
59.7146
59.7090
59.7863
59.8482
59.8487
59.8071
59.7918
59.8064
59.8419
59.8896
59.8811
59.8191
59.7996
59.8448
59.9174
59.9792
59.9710
59.9552
59.9809
60.374
60.814
60.484
59.9781
59.9815
60.393
60.1023
60.1622
60.1814
60.1696
60.1548
60.1817
60.2311
60.2072
60.1128
60.926
60.1634
60.2250
60.2419
60.2034
60.1686
60.1529
60.1647
60.1990
60.1952
60.1111
60.507
60.588
60.935
60.1160
60.807
60.314
60.123
60.221
60.358
59.9919
59.8684
59.7931
59.8070
59.8522
59.8924
59.8901
59.8516
59.8079
59.7898
59.8195
59.8453
59.7633
59.6877
59.7204
59.8003
59.8463
59.8281
59.7933
59.7923
59.8134
59.8538
59.8945
59.8578
59.8041
59.8032
59.8635
59.9405
59.9790
59.9558
59.9468
59.9864
60.410
60.723
60.107
59.9507
59.9717
60.419
60.1070
60.1568
60.1615
60.1415
60.1383
60.1806
60.2255
60.1694
60.810
60.914
60.1678
60.2138
60.2034
60.1585
60.1331
60.1268
60.1439
60.1676
60.1223
60.339
59.9988
60.212
60.576
60.649
60.151
59.9724
59.9671
59.9823
59.9931
59.9213
59.7957
59.7530
59.7935
59.8425
59.8749
59.8646
59.8254
59.7890
59.7835
59.8176
59.8006
59.6999
59.6451
59.7050
59.7786
59.8023
59.7719
59.7511
59.7611
59.7876
59.8328
59.8580
59.8113
59.7719
59.7948
59.8629
59.9362
59.9495
59.9237
59.9244
59.9746
60.291
60.370
59.9638
59.9289
59.9674
60.342
60.977
60.1375
60.1341
60.1121
60.1148
60.1633
60.1921
60.1176
60.512
60.911
60.1642
60.1962
60.1754
60.1376
60.1155
60.1170
60.1406
60.1640
60.989
60.163
59.9959
60.361
60.677
60.551
59.9984
59.9610
59.9618
59.9787
59.9750
59.8769
59.7675
59.7498
59.7947
59.8396
59.8647
59.8418
59.8062
59.7825
59.7946
59.8343
59.7966
59.6995
59.6847
59.7611
59.8278
59.8420
59.8028
59.7858
59.8017
59.8352
59.8803
59.8874
59.8311
59.8024
59.8429
59.9201
59.9863
59.9810
59.9647
59.9896
60.509
60.1051
60.866
60.150
60.69
60.658
60.1357
60.2055
60.2285
60.2222
60.2080
60.2361
60.2967
60.2930
60.1929
60.1595
60.2289
60.2997
60.3143
60.2722
60.2406
60.2276
60.2310
60.2681
60.2729
60.1947
60.1324
60.1381
60.1826
60.2165
60.1799
60.1248
60.1055
60.1147
60.1359
60.982
59.9736
59.8993
59.9138
59.9628
60.31
60.86
59.9792
59.9406
59.9252
59.9575
59.9733
59.8867
59.8128
59.8439
59.9252
59.9679
59.9486
59.9188
59.9202
59.9470
59.9907
60.246
59.9850
59.9402
59.9492
60.144
60.838
60.1148
60.860
60.745
60.1131
60.1709
60.1964
60.1314
60.805
60.1042
60.1666
60.2299
60.2786
60.2820
60.2593
60.2542
60.3020
60.3465
60.2804
60.1935
60.2092
60.2849
60.3246
60.3154
60.2691
60.2379
60.2295
60.2489
60.2766
60.2238
60.1306
60.962
60.1189
60.1500
60.1495
60.904
60.399
60.283
60.424
60.468
59.9580
59.8409
59.8096
59.8545
59.9001
59.9278
59.9079
59.8720
59.8372
59.8347
59.8670
59.8485
59.7430
59.6991
59.7575
59.8253
59.8443
59.8101
59.7871
59.7944
59.8236
59.8703
59.8858
59.8331
59.7950
59.8248
59.8966
59.9660
59.9754
59.9537
59.9657
60.168
60.705
60.674
59.9913
59.9693
60.183
60.862
60.1511
60.1849
60.1762
60.1557
60.1632
60.2151
60.2300
60.1415
60.827
60.1299
60.2049
60.2335
60.2097
60.1655
60.1440
60.1514
60.1832
60.2037
60.1291
60.462
60.344
60.724
60.1089
60.897
60.332
60.44
60.73
60.198

END