=~=~=~=~=~=~=~=~=~=~=~= PuTTY log 2025.04.16 15:15:16 =~=~=~=~=~=~=~=~=~=~=~=




Speed (Hz)
59.9269
59.9516
59.9826
59.9817
59.9733
59.9806
59.9841
59.9772
59.9558
59.9690
60.103
60.607
60.1198
60.2098
60.3123
60.4054
60.4848
60.5223
60.5221
60.5131
60.4884
60.4533
60.4018
60.3584
60.3047
60.2357
60.1960
60.2001
60.2098
60.2261
60.2839
60.3676
60.4471
60.4843
60.4874
60.4719
60.4180
60.3367
60.2648
60.1869
60.1093
60.156
59.9516
59.9258
59.9110
59.9138
59.9379
59.9854
60.362
60.766
60.865
60.537
60.53
59.9466
59.8798
59.8072
59.7347
59.6693
59.5823
59.5033
59.4692
59.4629
59.4718
59.5077
59.5922
59.6952
59.7662
59.7968
59.8073
59.8043
59.7682
59.7236
59.6922
59.6544
59.6084
59.5629
59.5605
59.5866
59.6219
59.6782
59.7680
59.8680
59.9668
60.455
60.846
60.876
60.821
60.680
60.452
60.178
59.9984
59.9645
59.9218
59.9141
59.9434
59.9847
60.314
60.1179
60.2245
60.3168
60.3609
60.3747
60.3672
60.3153
60.2438
60.1760
60.1068
60.311
59.9475
59.8997
59.8861
59.8841
59.8972
59.9374
59.9948
60.489
60.881
60.910
60.553
60.87
59.9484
59.8831
59.8160
59.7523
59.6882
59.6066
59.5494
59.5303
59.5355
59.5484
59.6017
59.6942
59.7865
59.8439
59.8598
59.8580
59.8362
59.7877
59.7428
59.7076
59.6694
59.6217
59.5896
59.6019
59.6373
59.6852
59.7553
59.8554
59.9597
60.546
60.1266
60.1528
60.1572
60.1505
60.1352
60.1144
60.842
60.619
60.174
59.9768
59.9786
60.52
60.392
60.877
60.1812
60.2851
60.3648
60.4027
60.4088
60.3969
60.3431
60.2759
60.2238
60.1607
60.898
60.183
59.9853
59.9797
59.9800
59.9977
60.453
60.935
60.1432
60.1728
60.1614
60.1193
60.637
59.9967
59.9304
59.8557
59.7973
59.7230
59.6377
59.5877
59.5797
59.5886
59.6120
59.6811
59.7747
59.8646
59.9138
59.9306
59.9324
59.9073
59.8576
59.8208
59.7856
59.7483
59.6905
59.6658
59.6786
59.7059
59.7512
59.8215
59.9192
60.123
60.1025
60.1555
60.1719
60.1753
60.1681
60.1494
60.1229
60.950
60.727
60.290
60.47
60.185
60.547
60.883
60.1535
60.2538
60.3519
60.4109
60.4311
60.4265
60.3925
60.3217
60.2501
60.1851
60.1148
60.315
59.9710
59.9506
59.9451
59.9552
59.9871
60.429
60.1007
60.1488
60.1672
60.1440
60.966
60.412
59.9765
59.9082
59.8375
59.7801
59.6971
59.6227
59.5871
59.5816
59.5934
59.6228
59.7000
59.7951
59.8698
59.8997
59.9084
59.9004
59.8581
59.8110
59.7768
59.7439
59.7021
59.6621
59.6599
59.6884
59.7293
59.7858
59.8743
59.9751
60.675
60.1453
60.1817
60.1835
60.1737
60.1564
60.1314
60.999
60.757
60.415
59.9980
59.9854
60.148
60.486
60.890
60.1683
60.2716
60.3628
60.4091
60.4238
60.4173
60.3710
60.3019
60.2407
60.1777
60.1113
60.310
59.9804
59.9655
59.9630
59.9734
60.39
60.597
60.1079
60.1450
60.1465
60.1128
60.652
60.65
59.9416
59.8712
59.8108
59.7524
59.6762
59.6191
59.5970
59.6023
59.6152
59.6614
59.7548
59.8480
59.9086
59.9291
59.9322
59.9134
59.8656
59.8219
59.7912
59.7562
59.7064
59.6750
59.6819
59.7132
59.7597
59.8231
59.9220
60.239
60.1170
60.1888
60.2173
60.2192
60.2166
60.2037
60.1827
60.1541
60.1369
60.960
60.557
60.560
60.845
60.1166
60.1623
60.2501
60.3489
60.4244
60.4535
60.4592
60.4438
60.3840
60.3149
60.2597
60.1979
60.1250
60.520
60.219
60.179
60.224
60.441
60.911
60.1484
60.1943
60.2257
60.2145
60.1713
60.1184
60.542
59.9852
59.9132
59.8540
59.7811
59.6947
59.6422
59.6297
59.6388
59.6545
59.7192
59.8098
59.8943
59.9382
59.9562
59.9558
59.9294
59.8822
59.8511
59.8187
59.7836
59.7304
59.7120
59.7299
59.7620
59.8089
59.8787
59.9733
60.624
60.1464
60.1924
60.2040
60.2006
60.1916
60.1736
60.1479
60.1243
60.999
60.524
60.281
60.417
60.764
60.1129
60.1773
60.2786
60.3759
60.4369
60.4559
60.4527
60.4168
60.3503
60.2853
60.2231
60.1527
60.655
60.33
59.9773
59.9703
59.9713
59.9957
60.460
60.930
60.1370
60.1538
60.1297
60.838
60.297
59.9670
59.9014
59.8336
59.7753
59.6968
59.6219
59.5859
59.5816
59.5937
59.6229
59.7038
59.7973
59.8693
59.8972
59.8994
59.8876
59.8455
59.7973
59.7615
59.7269
59.6838
59.6387
59.6363
59.6659
59.7109
59.7705
59.8583
59.9587
60.564
60.1364
60.1765
60.1832
60.1846
60.1730
60.1530
60.1217
60.984
60.609
60.120
59.9937
60.157
60.501
60.875
60.1650
60.2669
60.3572
60.4055
60.4224
60.4215
60.3799
60.3153
60.2575
60.1979
60.1295
60.481
60.22
59.9885
59.9834
59.9991
60.329
60.875
60.1353
60.1738
60.1769
60.1450
60.972
60.363
59.9710
59.9012
59.8349
59.7717
59.6842
59.6206
59.5988
59.6020
59.6196
59.6741
59.7665
59.8624
59.9259
59.9516
59.9558
59.9372
59.8920
59.8477
59.8120
59.7730
59.7201
59.6810
59.6897
59.7167
59.7586
59.8205
59.9132
60.126
60.1048
60.1727
60.1989
60.2022
60.1970
60.1837
60.1613
60.1331
60.1155
60.709
60.276
60.280
60.555
60.901
60.1380
60.2292
60.3278
60.4040
60.4315
60.4323
60.4148
60.3523
60.2788
60.2147
60.1429
60.645
59.9895
59.9523
59.9435
59.9475
59.9682
60.199
60.807
60.1348
60.1686
60.1640
60.1264
60.766
60.156
59.9454
59.8699
59.8053
59.7282
59.6431
59.5904
59.5751
59.5809
59.5997
59.6651
59.7632
59.8514
59.9000
59.9161
59.9139
59.8860
59.8372
59.8023
59.7701
59.7314
59.6772
59.6577
59.6800
59.7146
59.7681
59.8484
59.9507
60.505
60.1408
60.1985
60.2144
60.2138
60.2005
60.1807
60.1476
60.1131
60.881
60.381
60.60
60.146
60.466
60.821
60.1479
60.2506
60.3551
60.4222
60.4486
60.4520
60.4239
60.3571
60.2927
60.2294
60.1598
60.720
60.35
59.9741
59.9618
59.9650
59.9864
60.377
60.883
60.1336
60.1470
60.1258
60.778
60.215
59.9545
59.8826
59.8122
59.7525
59.6705
59.5981
59.5618
59.5623
59.5736
59.6037
59.6865
59.7845
59.8636
59.8974
59.9057
59.8971
59.8548
59.8041
59.7666
59.7260
59.6811
59.6280
59.6168
59.6371
59.6730
59.7256
59.8118
59.9158
60.168
60.1016
60.1465
60.1582
60.1632
60.1565
60.1370
60.1060
60.835
60.480
59.9997
59.9780
59.9940
60.252
60.591
60.1377
60.2400
60.3346
60.3836
60.3986
60.3958
60.3526
60.2893
60.2303
60.1674
60.1024
60.226
59.9741
59.9583
59.9554
59.9644
60.18
60.598
60.1153
60.1597
60.1679
60.1358
60.892
60.339
59.9685
59.9002
59.8309
59.7652
59.6793
59.6100
59.5783
59.5736
59.5838
59.6259
59.7130
59.8097
59.8756
59.9028
59.9113
59.9006
59.8562
59.8128
59.7814
59.7451
59.6919
59.6523
59.6526
59.6791
59.7199
59.7783
59.8706
59.9640
60.538
60.1231
60.1546
60.1551
60.1510
60.1377
60.1108
60.784
60.570
60.148
59.9719
59.9675
59.9943
60.281
60.725
60.1633
60.2688
60.3512
60.3909
60.4055
60.3912
60.3377
60.2667
60.2035
60.1335
60.535
59.9710
59.9299
59.9151
59.9130
59.9252
59.9691
60.261
60.756
60.1159
60.1109
60.731
60.243
59.9647
59.9013
59.8338
59.7734
59.7024
59.6218
59.5650
59.5511
59.5533
59.5732
59.6330
59.7272
59.8181
59.8670
59.8908
59.8899
59.8669
59.8161
59.7755
59.7379
59.7012
59.6449
59.6175
59.6272
59.6634
59.7132
59.7878
59.8909
59.9941
60.938
60.1576
60.1846
60.1872
60.1804
60.1595
60.1312
60.986
60.696
60.131
59.9734
59.9744
60.11
60.333
60.916
60.1890
60.2936
60.3640
60.3954
60.4006
60.3780
60.3152
60.2489
60.1903
60.1219
60.406
59.9718
59.9415
59.9371
59.9376
59.9599
60.108
60.650
60.1131
60.1335
60.1154
60.737
60.158
59.9503
59.8789
59.8039
59.7413
59.6588
59.5779
59.5345
59.5313
59.5401
59.5674
59.6473
59.7523
59.8396
59.8843
59.8991
59.9012
59.8694
59.8223
59.7891
59.7532
59.7088
59.6517
59.6365
59.6530
59.6864
59.7391
59.8194
59.9202
60.185
60.1093
60.1623
60.1790
60.1829
60.1781
60.1605
60.1323
60.1077
60.739
60.243
59.9997
60.158
60.502
60.899
60.1649
60.2695
60.3694
60.4244
60.4426
60.4391
60.4004
60.3293
60.2608
60.1953
60.1231
60.362
59.9757
59.9564
59.9491
59.9585
59.9904
60.495
60.1020
60.1473
60.1633
60.1380
60.924
60.388
59.9778
59.9075
59.8378
59.7732
59.6870
59.6124
59.5775
59.5745
59.5820
59.6203
59.7068
59.8041
59.8728
59.8963
59.9014
59.8870
59.8420
59.7942
59.7626
59.7251
59.6771
59.6353
59.6364
59.6635
59.7060
59.7665
59.8581
59.9599
60.573
60.1356
60.1720
60.1780
60.1757
60.1577
60.1342
60.1015
60.760
60.319
59.9826
59.9698
59.9921
60.226
60.641
60.1523
60.2591
60.3484
60.3934
60.4082
60.4020
60.3505
60.2840
60.2217
60.1557
60.807
59.9945
59.9475
59.9333
59.9289
59.9355
59.9734
60.269
60.761
60.1108
60.1099
60.727
60.226
59.9594
59.8937
59.8278
59.7599
59.6952
59.6105
59.5513
59.5322
59.5384
59.5532
59.6074
59.6964
59.7874
59.8415
59.8617
59.8649
59.8427
59.7909
59.7450
59.7061
59.6668
59.6115
59.5767
59.5851
59.6131
59.6569
59.7224
59.8204
59.9191
60.146
60.840
60.1102
60.1145
60.1108
60.964
60.731
60.451
60.240
59.9755
59.9386
59.9362
59.9639
59.9973
60.453
60.1352
60.2348
60.3098
60.3394
60.3463
60.3242
60.2622
60.1935
60.1334
60.682
59.9898
59.9227
59.8962
59.8932
59.8978
59.9202
59.9738
60.318
60.849
60.1165
60.1099
60.653
60.141
59.9529
59.8857
59.8164
59.7538
59.6813
59.6008
59.5516
59.5405
59.5511
59.5750
59.6477
59.7461
59.8390
59.8870
59.9041
59.9053
59.8775
59.8336
59.7952
59.7631
59.7239
59.6728
59.6517
59.6716
59.7049
59.7556
59.8317
59.9320
60.282
60.1163
60.1705
60.1809
60.1802
60.1689
60.1491
60.1217
60.940
60.688
60.187
59.9929
60.70
60.404
60.776
60.1452
60.2470
60.3438
60.4047
60.4275
60.4284
60.3977
60.3328
60.2661
60.2003
60.1297
60.432
59.9755
59.9506
59.9429
59.9462
59.9685
60.261
60.794
60.1242
60.1442
60.1219
60.773
60.228
59.9602
59.8919
59.8270
59.7722
59.6926
59.6228
59.5919
59.5942
59.6081
59.6414
59.7237
59.8205
59.8919
59.9204
59.9271
59.9148
59.8737
59.8242
59.7885
59.7498
59.7037
59.6590
59.6503
59.6793
59.7211
59.7821
59.8722
59.9759
60.693
60.1533
60.1921
60.1969
60.1954
60.1826
60.1585
60.1276
60.1052
60.678
60.198
60.59
60.247
60.556
60.893
60.1693
60.2732
60.3621
60.4075
60.4214
60.4169
60.3716
60.3029
60.2469
60.1845
60.1148
60.305
59.9826
59.9701
59.9683
59.9751
60.119
60.665
60.1185
60.1569
60.1569
60.1210
60.658
60.31
59.9363
59.8639
59.7948
59.7282
59.6400
59.5777
59.5533
59.5535
59.5695
59.6162
59.7110
59.8057
59.8669
59.8891
59.8967
59.8841
59.8407
59.8009
59.7667
59.7285
59.6807
59.6428
59.6507
59.6769
59.7185
59.7784
59.8726
59.9666
60.584
60.1275
60.1562
60.1605
60.1597
60.1452
60.1242
60.952
60.760
60.333
59.9952
59.9918
60.251
60.612
60.1075
60.1980
60.2997
60.3776
60.4105
60.4193
60.4033
60.3469
60.2789
60.2188
60.1514
60.749
59.9967
59.9592
59.9466
59.9479
59.9629
60.111
60.730
60.1279
60.1626
60.1587
60.1210
60.746
60.185
59.9553
59.8868
59.8223
59.7486
59.6610
59.6096
59.5943
59.5989
59.6168
59.6826
59.7751
59.8632
59.9070
59.9186
59.9183
59.8899
59.8431
59.8027
59.7695
59.7319
59.6785
59.6579
59.6775
59.7139
59.7662
59.8391
59.9416
60.444
60.1353
60.1937
60.2096
60.2077
60.1992
60.1759
60.1409
60.1091
60.793
60.287
59.9945
60.6
60.345
60.703
60.1368
60.2391
60.3386
60.4005
60.4265
60.4264
60.3981
60.3332
60.2697
60.2117
60.1456
60.652
60.12
59.9751
59.9673
59.9701
59.9943
60.474
60.981
60.1382
60.1515
60.1265
60.792
60.189
59.9526
59.8841
59.8181
59.7645
59.6851
59.6133
59.5793
59.5772
59.5892
59.6183
59.6992
59.7973
59.8776
59.9118
59.9230
59.9170
59.8784
59.8283
59.7899
59.7524
59.7065
59.6547
59.6448
59.6676
59.7056
59.7585
59.8439
59.9408
60.379
60.1207
60.1646
60.1748
60.1763
60.1637
60.1476
60.1226
60.1020
60.723
60.265
60.58
60.242
60.546
60.898
60.1626
60.2620
60.3508
60.3957
60.4099
60.4000
60.3549
60.2839
60.2209
60.1590
60.919
60.84
59.9581
59.9455
59.9419
59.9525
59.9895
60.466
60.984
60.1421
60.1487
60.1155
60.656
60.52
59.9397
59.8664
59.7983
59.7321
59.6434
59.5770
59.5485
59.5490
59.5573
59.6012
59.6897
59.7884
59.8521
59.8753
59.8809
59.8713
59.8267
59.7851
59.7536
59.7182
59.6701
59.6323
59.6375
59.6682
59.7178
59.7801
59.8766
59.9756
60.700
60.1394
60.1689
60.1699
60.1618
60.1445
60.1188
60.876
60.679
60.250
59.9881
59.9839
60.170
60.582
60.1113
60.2061
60.3126
60.3963
60.4317
60.4387
60.4236
60.3669
60.2962
60.2332
60.1666
60.904
60.116
59.9720
59.9622
59.9630
59.9791
60.224
60.775
60.1281
60.1595
60.1495
60.1082
60.569
59.9995
59.9328
59.8697
59.8110
59.7475
59.6687
59.6149
59.6048
59.6147
59.6344
59.6940
59.7869
59.8738
59.9164
59.9279
59.9251
59.8910
59.8384
59.8001
59.7633
59.7229
59.6718
59.6475
59.6623
59.6985
59.7474
59.8208
59.9241
60.256
60.1177
60.1785
60.1988
60.2013
60.1919
60.1752
60.1493
60.1194
60.923
60.425
60.92
60.177
60.491
60.821
60.1409
60.2366
60.3336
60.4029
60.4250
60.4296
60.4042
60.3416
60.2779
60.2173
60.1507
60.712
60.62
59.9796
59.9713
59.9755
59.9982
60.507
60.1037
60.1515
60.1704
60.1510
60.1032
60.437
59.9748
59.9071
59.8342
59.7719
59.6950
59.6196
59.5773
59.5745
59.5864
59.6180
59.6969
59.7973
59.8800
59.9166
59.9287
59.9245
59.8902
59.8399
59.8069
59.7698
59.7248
59.6693
59.6571
59.6783
59.7118
59.7655
59.8457
59.9431
60.383
60.1178
60.1627
60.1716
60.1733
60.1656
60.1458
60.1175
60.956
60.660
60.181
60.29
60.236
60.594
60.986
60.1747
60.2745
60.3683
60.4169
60.4307
60.4238
60.3831
60.3124
60.2478
60.1833
60.1141
60.281
59.9719
59.9511
59.9477
59.9592
59.9938
60.489
60.1004
60.1477
60.1581
60.1322
60.850
60.284
59.9670
59.9001
59.8351
59.7753
59.6896
59.6252
59.5982
59.5993
59.6102
59.6478
59.7364
59.8311
59.9013
59.9283
59.9327
59.9179
59.8729
59.8296
59.7996
59.7650
59.7188
59.6786
59.6841
59.7146
59.7573
59.8207
59.9179
60.208
60.1229
60.1988
60.2324
60.2361
60.2343
60.2145
60.1893
60.1591
60.1367
60.944
60.471
60.417
60.619
60.961
60.1402
60.2270
60.3321
60.4162
60.4567
60.4682
60.4596
60.4070
60.3447
60.2893
60.2243
60.1472
60.667
60.217
60.83
60.73
60.174
60.591
60.1098
60.1551
60.1855
60.1761
60.1345
60.848
60.242
59.9602
59.8901
59.8287
59.7609
59.6766
59.6221
59.6066
59.6177
59.6354
59.6999
59.7957
59.8850
59.9361
59.9564
59.9602
59.9367
59.8900
59.8491
59.8122
59.7725
59.7172
59.6872
59.6990
59.7283
59.7743
59.8442
59.9428
60.408
60.1333
60.1952
60.2140
60.2176
60.2122
60.1951
60.1713
60.1416
60.1176
60.667
60.329
60.399
60.707
60.1042
60.1611
60.2597
60.3576
60.4244
60.4455
60.4451
60.4148
60.3505
60.2831
60.2213
60.1509
60.663
59.9983
59.9744
59.9664
59.9738
60.29
60.583
60.1162
60.1663
60.1893
60.1708
60.1268
60.677
60.14
59.9312
59.8577
59.7975
59.7107
59.6278
59.5791
59.5696
59.5750
59.6019
59.6799
59.7777
59.8545
59.8927
59.9052
59.8994
59.8612
59.8140
59.7792
59.7400
59.6967
59.6447
59.6357
59.6612
59.6999
59.7591
59.8465
59.9464
60.422
60.1258
60.1693
60.1769
60.1712
60.1566
60.1318
60.1028
60.769
60.465
59.9974
59.9802
60.34
60.398
60.840
60.1593
60.2653
60.3658
60.4220
60.4406
60.4410
60.3998
60.3334
60.2761
60.2125
60.1416
60.581
60.50
59.9848
59.9801
59.9890
60.239
60.796
60.1308
60.1731
60.1819
60.1533
60.1069
60.517
59.9899
59.9245
59.8589
59.8009
59.7180
59.6533
59.6282
59.6300
59.6485
59.6918
59.7777
59.8696
59.9318
59.9537
59.9595
59.9409
59.8932
59.8444
59.8072
59.7719
59.7200
59.6789
59.6811
59.7077
59.7472
59.8123
59.9065
60.108
60.1078
60.1776
60.2064
60.2076
60.2051
60.1902
60.1653
60.1320
60.1108
60.646
60.220
60.114
60.335
60.638
60.1032
60.1880
60.2885
60.3655
60.3997
60.4068
60.3942
60.3415
60.2720
60.2117
60.1480
60.776
60.1
59.9595
59.9511
59.9508
59.9645
60.96
60.673
60.1198
60.1534
60.1479
60.1065
60.546
59.9899
59.9200
59.8443
59.7768
59.7035
59.6187
59.5564
59.5395
59.5487
59.5679
59.6336
59.7310
59.8248
59.8801
59.8950
59.8967
59.8730
59.8240
59.7836
59.7486
59.7078
59.6512
59.6220
59.6334
59.6640
59.7066
59.7777
59.8761
59.9715
60.631
60.1229
60.1390
60.1421
60.1360
60.1183
60.941
60.656
60.422
59.9936
59.9596
59.9695
60.30
60.382
60.949
60.1913
60.2962
60.3640
60.3904
60.3930
60.3659
60.3006
60.2327
60.1672
60.978
60.133
59.9404
59.9054
59.8939
59.8930
59.9115
59.9617
60.122
60.625
60.901
60.762
60.343
59.9822
59.9197
59.8537
59.7829
59.7223
59.6447
59.5620
59.5164
59.5095
59.5138
59.5373
59.6075
59.7026
59.7840
59.8226
59.8334
59.8335
59.7969
59.7459
59.7112
59.6776
59.6359
59.5850
59.5701
59.5919
59.6305
59.6855
59.7699
59.8736
59.9747
60.673
60.1195
60.1320
60.1356
60.1264
60.1096
60.821
60.531
60.243
59.9731
59.9467
59.9602
59.9924
60.305
60.1006
60.2058
60.3055
60.3652
60.3883
60.3903
60.3568
60.2936
60.2340
60.1761
60.1135
60.353
59.9791
59.9591
59.9523
59.9600
59.9844
60.397
60.903
60.1351
60.1449
60.1156
60.662
60.64
59.9415
59.8705
59.8045
59.7435
59.6622
59.5917
59.5603
59.5623
59.5772
59.6179
59.7073
59.8074
59.8821
59.9128
59.9210
59.9125
59.8703
59.8211
59.7816
59.7408
59.6860
59.6317
59.6244
59.6443
59.6802
59.7351
59.8259
59.9276
60.257
60.1025
60.1429
60.1521
60.1510
60.1410
60.1187
60.893
60.652
60.271
59.9823
59.9670
59.9920
60.266
60.633
60.1470
60.2482
60.3376
60.3785
60.3869
60.3770
60.3262
60.2508
60.1864
60.1175
60.435
59.9594
59.9103
59.8952
59.8941
59.9143
59.9545
60.167
60.736
60.1148
60.1195
60.857
60.383
59.9777
59.9118
59.8396
59.7716
59.7048
59.6132
59.5454
59.5192
59.5223
59.5332
59.5820
59.6745
59.7698
59.8332
59.8585
59.8674
59.8524
59.8076
59.7682
59.7355
59.6950
59.6448
59.6096
59.6149
59.6448
59.6910
59.7566
59.8525
59.9520
60.463
60.1138
60.1393
60.1400
60.1281
60.1124
60.852
60.512
60.298
59.9847
59.9477
59.9471
59.9824
60.230
60.746
60.1731
60.2828
60.3647
60.3972
60.4079
60.3935
60.3373
60.2716
60.2098
60.1436
60.678
59.9930
59.9579
59.9450
59.9441
59.9597
60.75
60.610
60.1085
60.1411
60.1338
60.926
60.412
59.9816
59.9172
59.8466
59.7887
59.7161
59.6368
59.5888
59.5829
59.5971
59.6210
59.6894
59.7862
59.8742
59.9213
59.9373
59.9348
59.9026
59.8496
59.8085
59.7705
59.7298
59.6781
59.6600
59.6819
59.7223
59.7754
59.8573
59.9646
60.642
60.1605
60.2170
60.2371
60.2376
60.2307
60.2134
60.1829
60.1542
60.1270
60.807
60.539
60.642
60.966
60.1335
60.2008
60.3037
60.4017
60.4642
60.4877
60.4871
60.4546
60.3815
60.3147
60.2522
60.1846
60.1052
60.435
60.210
60.178
60.270
60.585
60.1143
60.1679
60.2119
60.2244
60.1973
60.1501
60.886
60.190
59.9423
59.8663
59.8002
59.7134
59.6371
59.5979
59.5959
59.6115
59.6505
59.7377
59.8417
59.9224
59.9580
59.9693
59.9614
59.9223
59.8737
59.8358
59.7991
59.7540
59.7091
59.7034
59.7278
59.7661
59.8221
59.9119
60.120
60.1075
60.1877
60.2240
60.2301
60.2255
60.2073
60.1856
60.1514
60.1286
60.928
60.443
60.319
60.611
60.945
60.1360
60.2204
60.3283
60.4154
60.4581
60.4692
60.4577
60.4055
60.3286
60.2675
60.2021
60.1290
60.420
59.9930
59.9778
59.9753
59.9861
60.230
60.783
60.1312
60.1733
60.1738
60.1399
60.911
60.312
59.9665
59.8960
59.8333
59.7704
59.6881
59.6226
59.6020
59.6040
59.6179
59.6651
59.7528
59.8412
59.8957
59.9136
59.9118
59.8883
59.8379
59.7931
59.7569
59.7211
59.6730
59.6404
59.6487
59.6821
59.7278
59.7953
59.8930
59.9955
60.917
60.1626
60.1915
60.1919
60.1869
60.1663
60.1407
60.1073
60.803
60.310
59.9889
59.9842
60.107
60.473
60.955
60.1894
60.2975
60.3793
60.4157
60.4200
60.4025
60.3449
60.2786
60.2177
60.1534
60.767
60.38
59.9722
59.9657
59.9689
59.9850
60.353
60.883
60.1338
60.1572
60.1443
60.1024
60.465
59.9830
59.9148
59.8454
59.7870
59.7140
59.6340
59.5879
59.5802
59.5914
59.6189
59.6913
59.7929
59.8822
59.9301
59.9491
59.9512
59.9221
59.8700
59.8257
59.7865
59.7416
59.6854
59.6617
59.6788
59.7114
59.7614
59.8358
59.9354
60.279
60.1184
60.1715
60.1859
60.1871
60.1794
60.1617
60.1358
60.1109
60.850
60.354
60.69
60.227
60.535
60.862
60.1514
60.2493
60.3458
60.3996
60.4168
60.4120
60.3786
60.3047
60.2382
60.1727
60.965
60.121
59.9465
59.9205
59.9143
59.9219
59.9499
60.104
60.659
60.1145
60.1346
60.1127
60.669
60.100
59.9464
59.8771
59.8053
59.7434
59.6612
59.5808
59.5403
59.5362
59.5429
59.5726
59.6507
59.7483
59.8225
59.8586
59.8716
59.8673
59.8268
59.7803
59.7430
59.7038
59.6611
59.6139
59.6105
59.6371
59.6771
59.7369
59.8284
59.9298
60.266
60.1088
60.1469
60.1527
60.1486
60.1327
60.1090
60.758
60.517
60.177
59.9687
59.9526
59.9759
60.105
60.496
60.1293
60.2335
60.3281
60.3822
60.4016
60.3974
60.3529
60.2808
60.2193
60.1548
60.807
59.9928
59.9356
59.9144
59.9097
59.9174
59.9510
60.99
60.619
60.1035
60.1119
60.870
60.356
59.9741
59.9094
59.8349
59.7685
59.7068
59.6224
59.5565
59.5302
59.5348
59.5509
59.5975
59.6890
59.7865
59.8492
59.8699
59.8715
59.8516
59.8027
59.7519
59.7132
59.6716
59.6140
59.5720
59.5704
59.6005
59.6431
59.7062
59.8039
59.9043
60.43
60.838
60.1201
60.1281
60.1283
60.1116
60.879
60.581
60.340
59.9930
59.9485
59.9401
59.9670
60.1
60.457
60.1376
60.2439
60.3298
60.3693
60.3833
60.3748
60.3199
60.2519
60.1982
60.1341
60.596
59.9787
59.9397
59.9310
59.9307
59.9457
59.9926
60.487
60.1032
60.1426
60.1420
60.1030
60.522
59.9915
59.9199
59.8438
59.7781
59.7028
59.6124
59.5516
59.5330
59.5386
59.5536
59.6141
59.7079
59.8040
59.8579
59.8773
59.8811
59.8579
59.8076
59.7625
59.7265
59.6857
59.6317
59.6006
59.6114
59.6419
59.6872
59.7548
59.8487
59.9441
60.339
60.939
60.1136
60.1139
60.1048
60.877
60.636
60.349
60.128
59.9656
59.9324
59.9386
59.9724
60.126
60.696
60.1665
60.2682
60.3419
60.3730
60.3785
60.3526
60.2865
60.2149
60.1512
60.819
60.21
59.9305
59.8978
59.8892
59.8930
59.9118
59.9649
60.241
60.734
60.1010
60.900
60.514
60.40
59.9425
59.8797
59.8092
59.7510
59.6731
59.5884
59.5454
59.5349
59.5462
59.5655
59.6346
59.7303
59.8153
59.8561
59.8666
59.8672
59.8372
59.7886
59.7513
59.7160
59.6743
59.6194
59.6023
59.6235
59.6607
59.7129
59.7934
59.8974
59.9958
60.871
60.1394
60.1521
60.1519
60.1400
60.1189
60.888
60.578
60.264
59.9718
59.9401
59.9502
59.9814
60.142
60.818
60.1845
60.2873
60.3508
60.3781
60.3840
60.3531
60.2884
60.2228
60.1606
60.927
60.106
59.9468
59.9226
59.9184
59.9208
59.9491
60.50
60.584
60.1034
60.1182
60.959
60.499
59.9922
59.9262
59.8554
59.7858
59.7277
59.6463
59.5711
59.5345
59.5328
59.5442
59.5818
59.6670
59.7676
59.8443
59.8807
59.8938
59.8926
59.8563
59.8078
59.7715
59.7296
59.6817
59.6285
59.6188
59.6400
59.6757
59.7297
59.8163
59.9156
60.164
60.1020
60.1507
60.1640
60.1719
60.1659
60.1460
60.1187
60.980
60.635
60.136
59.9955
60.180
60.508
60.903
60.1724
60.2754
60.3677
60.4157
60.4309
60.4254
60.3777
60.3079
60.2457
60.1808
60.1062
60.156
59.9662
59.9509
59.9472
59.9616
59.9999
60.574
60.1153
60.1618
60.1716
60.1407
60.943
60.351
59.9684
59.8943
59.8271
59.7634
59.6766
59.6087
59.5835
59.5839
59.5928
59.6420
59.7338
59.8317
59.8898
59.9159
59.9214
59.9039
59.8582
59.8149
59.7816
59.7443
59.6917
59.6556
59.6610
59.6921
59.7358
59.8006
59.9016
60.15
60.981
60.1675
60.1929
60.1936
60.1842
60.1668
60.1380
60.1049
60.818
60.329
59.9877
59.9856
60.165
60.509
60.1052
60.1982
60.3086
60.3910
60.4280
60.4368
60.4201
60.3626
60.2958
60.2352
60.1683
60.896
60.111
59.9761
59.9617
59.9584
59.9681
60.87
60.624
60.1130
60.1445
60.1344
60.946
60.432
59.9837
59.9202
59.8520
59.7902
59.7178
59.6349
59.5829
59.5713
59.5793
59.5994
59.6641
59.7575
59.8421
59.8876
59.9056
59.9025
59.8725
59.8199
59.7778
59.7405
59.6968
59.6386
59.6132
59.6266
59.6553
59.7019
59.7733
59.8732
59.9697
60.655
60.1257
60.1467
60.1460
60.1396
60.1212
60.935
60.651
60.399
59.9876
59.9550
59.9632
59.9898
60.219
60.802
60.1739
60.2690
60.3290
60.3519
60.3560
60.3264
60.2612
60.1975
60.1384
60.695
59.9858
59.9195
59.8915
59.8842
59.8917
59.9189
59.9773
60.342
60.849
60.1134
60.948
60.510
59.9960
59.9321
59.8608
59.7858
59.7254
59.6438
59.5644
59.5198
59.5133
59.5225
59.5494
59.6294
59.7324
59.8161
59.8583
59.8725
59.8671
59.8314
59.7838
59.7475
59.7068
59.6652
59.6139
59.6053
59.6274
59.6662
59.7221
59.8069
59.9094
60.75
60.916
60.1370
60.1447
60.1401
60.1289
60.1066
60.745
60.491
60.148
59.9658
59.9464
59.9678
60.33
60.446
60.1197
60.2271
60.3258
60.3804
60.4004
60.3946
60.3484
60.2766
60.2115
60.1428
60.686
59.9793
59.9206
59.8997
59.8964
59.9025
59.9309
59.9927
60.497
60.1010
60.1165
60.876
60.444
59.9889
59.9277
59.8599
59.7905
59.7323
59.6500
59.5811
59.5512
59.5523
59.5679
59.6100
59.6967
59.7943
59.8664
59.8947
59.8999
59.8902
59.8452
59.7999
59.7657
59.7270
59.6779
59.6351
59.6383
59.6700
59.7136
59.7771
59.8729
59.9756
60.781
60.1533
60.1894
60.1981
60.1910
60.1724
60.1485
60.1149
60.885
60.427
59.9944
59.9812
60.70
60.420
60.858
60.1711
60.2745
60.3587
60.4003
60.4136
60.4064
60.3588
60.2898
60.2342
60.1718
60.995
60.190
59.9779
59.9660
59.9639
59.9751
60.133
60.638
60.1117
60.1462
60.1432
60.1048
60.554
59.9953
59.9271
59.8570
59.7906
59.7195
59.6350
59.5770
59.5595
59.5677
59.5835
59.6410
59.7387
59.8327
59.8869
59.9105
59.9145
59.8932
59.8415
59.7960
59.7550
59.7092
59.6508
59.6168
59.6236
59.6530
59.6981
59.7667
59.8661
59.9648
60.624
60.1302
60.1559
60.1580
60.1549
60.1408
60.1136
60.893
60.707
60.271
59.9906
60.6
60.338
60.690
60.1288
60.2266
60.3323
60.4091
60.4418
60.4461
60.4245
60.3627
60.2929
60.2267
60.1600
60.765
60.24
59.9714
59.9619
59.9680
59.9925
60.496
60.1105
60.1691
60.1986
60.1887
60.1516
60.1017
60.409
59.9733
59.9026
59.8450
59.7658
59.6861
59.6346
59.6248
59.6318
59.6555
59.7286
59.8262
59.9098
59.9501
59.9643
59.9607
59.9273
59.8785
59.8436
59.8103
59.7694
59.7171
59.7026
59.7243
59.7579
59.8103
59.8920
59.9890
60.848
60.1723
60.2139
60.2215
60.2152
60.1993
60.1760
60.1479
60.1189
60.877
60.362
60.125
60.320
60.663
60.1047
60.1787
60.2824
60.3777
60.4314
60.4530
60.4524
60.4165
60.3485
60.2887
60.2278
60.1598
60.747
60.136
59.9919
59.9857
59.9940
60.244
60.766
60.1268
60.1691
60.1801
60.1505
60.1050
60.472
59.9872
59.9187
59.8503
59.7928
59.7133
59.6449
59.6144
59.6195
59.6346
59.6755
59.7667
59.8642
59.9355
59.9626
59.9661
59.9518
59.9058
59.8551
59.8177
59.7796
59.7312
59.6865
59.6888
59.7128
59.7535
59.8139
59.9109
60.110
60.1040
60.1800
60.2184
60.2244
60.2169
60.2004
60.1804
60.1513
60.1321
60.896
60.454
60.341
60.574
60.902
60.1305
60.2156
60.3166
60.3973
60.4331
60.4420
60.4266
60.3739
60.3015
60.2396
60.1739
60.1021
60.232
59.9830
59.9761
59.9773
59.9920
60.351
60.916
60.1421
60.1774
60.1748
60.1307
60.756
60.144
59.9479
59.8705
59.8014
59.7298
59.6397
59.5779
59.5558
59.5589
59.5702
59.6269
59.7190
59.8119
59.8655
59.8864
59.8898
59.8694
59.8222
59.7819
59.7471
59.7134
59.6619
59.6304
59.6439
59.6746
59.7193
59.7861
59.8856
59.9847
60.760
60.1357
60.1571
60.1579
60.1492
60.1338
60.1091
60.787
60.576
60.107
59.9783
59.9841
60.174
60.568
60.1177
60.2173
60.3261
60.4004
60.4325
60.4366
60.4169
60.3535
60.2821
60.2187
60.1497
60.658
59.9885
59.9552
59.9468
59.9495
59.9714
60.209
60.794
60.1321
60.1577
60.1450
60.1001
60.477
59.9883
59.9241
59.8527
59.7932
59.7166
59.6373
59.5935
59.5887
59.6020
59.6278
59.7008
59.7993
59.8811
59.9185
59.9307
59.9260
59.8882
59.8371
59.7968
59.7577
59.7167
59.6647
59.6522
59.6745
59.7148
59.7723
59.8576
59.9608
60.620
60.1472
60.1976
60.2088
60.2110
60.1985
60.1736
60.1414
60.1114
60.788
60.287
60.16
60.179
60.477
60.830
60.1507
60.2537
60.3495
60.4061
60.4246
60.4253
60.3880
60.3189
60.2558
60.1964
60.1268
60.442
59.9883
59.9711
59.9683
59.9780
60.68
60.643
60.1157
60.1596
60.1697
60.1417
60.930
60.288
59.9592
59.8851
59.8145
59.7528
59.6677
59.5944
59.5673
59.5666
59.5845
59.6271
59.7163
59.8196
59.8912
59.9215
59.9305
59.9245
59.8813
59.8330
59.7962
59.7521
59.7014
59.6523
59.6484
59.6689
59.7055
59.7606
59.8516
59.9506
60.446
60.1244
60.1609
60.1632
60.1603
60.1481
60.1240
60.922
60.691
60.310
59.9864
59.9717
59.9981
60.375
60.799
60.1639
60.2695
60.3561
60.3947
60.4054
60.3945
60.3386
60.2630
60.2012
60.1322
60.593
59.9725
59.9252
59.9101
59.9058
59.9185
59.9621
60.196
60.751
60.1133
60.1167
60.810
60.346
59.9761
59.9132
59.8445
59.7807
59.7168
59.6328
59.5695
59.5462
59.5508
59.5657
59.6183
59.7099
59.8040
59.8616
59.8823
59.8849
59.8654
59.8160
59.7758
59.7460
59.7109
59.6627
59.6323
59.6458
59.6821
59.7295
59.8020
59.9018
60.6
60.911
60.1537
60.1756
60.1743
60.1631
60.1441
60.1161
60.837
60.621
60.170
59.9816
59.9872
60.177
60.543
60.1065
60.2031
60.3041
60.3784
60.4066
60.4121
60.3901
60.3267
60.2594
60.1995
60.1354
60.579
59.9876
59.9561
59.9496
59.9501
59.9693
60.191
60.710
60.1170
60.1413
60.1241
60.776
60.226
59.9586
59.8919
59.8238
59.7670
59.6974
59.6206
59.5766
59.5703
59.5840
59.6061
59.6766
59.7770
59.8610
59.9018
59.9151
59.9103
59.8749
59.8215
59.7794
59.7430
59.7012
59.6452
59.6284
59.6488
59.6845
59.7369
59.8152
59.9170
60.149
60.1030
60.1580
60.1716
60.1736
60.1668
60.1472
60.1204
60.946
60.698
60.195
59.9940
60.76
60.408
60.758
60.1426
60.2417
60.3396
60.3997
60.4166
60.4129
60.3761
60.3080
60.2426
60.1804
60.1122
60.283
59.9693
59.9486
59.9460
59.9558
59.9836
60.407
60.969
60.1421
60.1611
60.1380
60.901
60.291
59.9640
59.8907
59.8158
59.7562
59.6714
59.5947
59.5566
59.5513
59.5599
59.5858
59.6655
59.7632
59.8371
59.8667
59.8767
59.8714
59.8321
59.7835
59.7488
59.7157
59.6713
59.6236
59.6175
59.6403
59.6780
59.7337
59.8179
59.9170
60.103
60.880
60.1286
60.1312
60.1252
60.1115
60.913
60.649
60.452
60.134
59.9693
59.9612
59.9856
60.217
60.620
60.1428
60.2464
60.3384
60.3863
60.4005
60.3978
60.3525
60.2847
60.2241
60.1626
60.938
60.166
59.9682
59.9545
59.9538
59.9614
59.9987
60.540
60.1055
60.1474
60.1553
60.1237
60.768
60.201
59.9582
59.8927
59.8282
59.7673
59.6857
59.6225
59.5965
59.5986
59.6129
59.6586
59.7470
59.8389
59.8975
59.9203
59.9258
59.9039
59.8567
59.8104
59.7748
59.7377
59.6862
59.6486
59.6543
59.6858
59.7295
59.7923
59.8899
59.9892
60.847
60.1576
60.1850
60.1874
60.1816
60.1654
60.1417
60.1055
60.816
60.344
59.9893
59.9830
60.79
60.375
60.822
60.1712
60.2769
60.3595
60.3947
60.4043
60.3878
60.3325
60.2647
60.2053
60.1420
60.706
59.9915
59.9557
59.9467
59.9476
59.9666
60.119
60.704
60.1189
60.1511
60.1481
60.1074
60.571
59.9962
59.9293
59.8598
59.7989
59.7247
59.6422
59.5876
59.5727
59.5811
59.6012
59.6682
59.7664
59.8603
59.9112
59.9343
59.9410
59.9189
59.8726
59.8375
59.8047
59.7631
59.7052
59.6786
59.6894
59.7186
59.7658
59.8332
59.9295
60.246
60.1145
60.1731
60.1957
60.1961
60.1905
60.1739
60.1458
60.1202
60.946
60.420
60.86
60.145
60.470
60.794
60.1407
60.2408
60.3398
60.4027
60.4251
60.4239
60.3913
60.3271
60.2594
60.1929
60.1230
60.344
59.9669
59.9364
59.9264
59.9332
59.9549
60.87
60.623
60.1142
60.1357
60.1203
60.793
60.223
59.9603
59.8942
59.8241
59.7632
59.6844
59.6037
59.5612
59.5529
59.5592
59.5835
59.6572
59.7510
59.8287
59.8611
59.8694
59.8633
59.8243
59.7712
59.7370
59.7001
59.6590
59.6100
59.6036
59.6297
59.6714
59.7278
59.8130
59.9179
60.167
60.1039
60.1494
60.1565
60.1572
60.1457
60.1253
60.987
60.719
60.386
59.9905
59.9704
59.9906
60.273
60.658
60.1461
60.2490
60.3488
60.4021
60.4271
60.4292
60.3933
60.3319
60.2778
60.2177
60.1517
60.714
60.164
59.9986
59.9896
59.9941
60.242
60.760
60.1277
60.1680
60.1773
60.1466
60.996
60.417
59.9795
59.9127
59.8465
59.7857
59.7035
59.6382
59.6156
59.6188
59.6357
59.6795
59.7705
59.8680
59.9333
59.9568
59.9650
59.9503
59.9036
59.8594
59.8251
59.7871
59.7370
59.6944
59.6948
59.7183
59.7544
59.8138
59.9034
60.21
60.963
60.1705
60.2021
60.2107
60.2101
60.1993
60.1765
60.1458
60.1293
60.873
60.486
60.442
60.698
60.990
60.1382
60.2221
60.3241
60.4014
60.4365
60.4425
60.4248
60.3694
60.2994
60.2437
60.1783
60.1018
60.251
59.9874
59.9765
59.9792
59.9969
60.439
60.1022
60.1574
60.1946
60.1923
60.1528
60.1023
60.391
59.9704
59.8983
59.8330
59.7613
59.6750
59.6146
59.5961
59.6012
59.6153
59.6798
59.7746
59.8655
59.9124
59.9342
59.9402
59.9155
59.8686
59.8330
59.7990
59.7590
59.7053
59.6792
59.6943
59.7256
59.7707
59.8395
59.9328
60.276
60.1145
60.1701
60.1868
60.1878
60.1774
60.1602
60.1297
60.1004
60.751
60.264
59.9921
59.9977
60.249
60.599
60.1183
60.2200
60.3216
60.3885
60.4151
60.4194
60.3896
60.3215
60.2544
60.1899
60.1218
60.342
59.9631
59.9332
59.9201
59.9200
59.9377
59.9856
60.368
60.829
60.1032
60.880
60.471
59.9951
59.9366
59.8715
59.8060
59.7519
59.6740
59.5970
59.5548
59.5507
59.5611
59.5837
59.6595
59.7544
59.8318
59.8665
59.8774
59.8724
59.8369
59.7880
59.7540
59.7163
59.6749
59.6265
59.6160
59.6431
59.6827
59.7354
59.8201
59.9203
60.166
60.1059
60.1559
60.1692
60.1731
60.1678
60.1504
60.1224
60.1011
60.707
60.264
60.23
60.176
60.499
60.822
60.1497
60.2492
60.3450
60.3984
60.4215
60.4183
60.3817
60.3178
60.2607
60.2038
60.1384
60.553
60.54
59.9921
59.9909
60.0
60.301
60.841
60.1344
60.1739
60.1830
60.1523
60.1056
60.469
59.9825
59.9151
59.8507
59.7907
59.7070
59.6386
59.6104
59.6080
59.6166
59.6563
59.7450
59.8422
59.9076
59.9394
59.9522
59.9426
59.8996
59.8576
59.8249
59.7858
59.7337
59.6919
59.6900
59.7138
59.7523
59.8085
59.8987
59.9965
60.895
60.1619
60.1918
60.1970
60.1964
60.1837
60.1659
60.1370
60.1197
60.803
60.395
60.325
60.565
60.907
60.1346
60.2227
60.3244
60.4089
60.4464
60.4546
60.4387
60.3863
60.3179
60.2595
60.1949
60.1216
60.377
59.9920
59.9746
59.9714
59.9874
60.307
60.858
60.1396
60.1769
60.1746
60.1368
60.887
60.306
59.9648
59.8960
59.8369
59.7656
59.6772
59.6193
59.6003
59.6016
59.6134
59.6696
59.7604
59.8494
59.8966
59.9145
59.9146
59.8870
59.8338
59.7913
59.7548
59.7191
59.6673
59.6411
59.6589
59.6916
59.7414
59.8173
59.9176
60.156
60.1066
60.1652
60.1845
60.1851
60.1754
60.1558
60.1261
60.960
60.701
60.205
59.9841
59.9880
60.171
60.475
60.1041
60.1998
60.2984
60.3679
60.3969
60.4057
60.3855
60.3245
60.2610
60.2061
60.1427
60.646
59.9966
59.9702
59.9625
59.9646
59.9849
60.333
60.857
60.1314
60.1539
60.1331
60.866
60.321
59.9649
59.8988
59.8281
59.7725
59.6948
59.6203
59.5834
59.5834
59.5960
59.6268
59.7029
59.8003
59.8807
59.9178
59.9279
59.9230
59.8857
59.8372
59.8003
59.7617
59.7199
59.6690
59.6550
59.6793
59.7134
59.7636
59.8449
59.9434
60.414
60.1260
60.1727
60.1874
60.1857
60.1743
60.1567
60.1287
60.1079
60.775
60.280
60.60
60.241
60.581
60.888
60.1617
60.2584
60.3491
60.4000
60.4119
60.4086
60.3699
60.3003
60.2400
60.1825
60.1185
60.349
59.9802
59.9651
59.9620
59.9755
60.96
60.669
60.1190
60.1633
60.1741
60.1426
60.951
60.382
59.9727
59.9010
59.8336
59.7732
59.6898
59.6217
59.5915
59.5925
59.6090
59.6514
59.7350
59.8280
59.8907
59.9138
59.9201
59.9088
59.8656
59.8197
59.7897
59.7571
59.7145
59.6772
59.6847
59.7161
59.7620
59.8257
59.9205
60.169
60.1097
60.1807
60.2056
60.2060
60.2000
60.1851
60.1586
60.1252
60.1040
60.654
60.228
60.181
60.507
60.856
60.1322
60.2222
60.3302
60.4138
60.4483
60.4533
60.4377
60.3817
60.3113
60.2471
60.1814
60.1032
60.222
59.9814
59.9671
59.9648
59.9749
60.167
60.723
60.1213
60.1543
60.1455
60.1010
60.473
59.9847
59.9171
59.8482
59.7869
59.7201
59.6404
59.5873
59.5762
59.5846
59.6035
59.6625
59.7469
59.8336
59.8810
59.8919
59.8882
59.8563
59.7973
59.7526
59.7163
59.6765
59.6266
59.5974
59.6117
59.6492
59.6984
59.7717
59.8715
59.9708
60.657
60.1270
60.1489
60.1491
60.1424
60.1227
60.1004
60.733
60.505
60.52
59.9712
59.9822
60.107
60.483
60.1067
60.2021
60.3025
60.3751
60.4014
60.4038
60.3796
60.3161
60.2480
60.1918
60.1315
60.556
59.9888
59.9647
59.9651
59.9738
59.9990
60.507
60.1037
60.1502
60.1734
60.1546
60.1068
60.480
59.9810
59.9132
59.8413
59.7835
59.7122
59.6375
59.5959
59.5936
59.6032
59.6279
59.7018
59.8015
59.8852
59.9240
59.9387
59.9381
59.8997
59.8500
59.8134
59.7769
59.7341
59.6819
59.6676
59.6928
59.7296
59.7834
59.8609
59.9593
60.519
60.1345
60.1825
60.1909
60.1844
60.1764
60.1556
60.1308
60.1088
60.828
60.390
60.204
60.402
60.751
60.1109
60.1846
60.2823
60.3738
60.4231
60.4402
60.4334
60.3910
60.3184
60.2518
60.1850
60.1170
60.338
59.9802
59.9615
59.9606
59.9709
60.0
60.573
60.1104
60.1523
60.1646
60.1372
60.897
60.322
59.9649
59.8987
59.8311
59.7736
59.6940
59.6263
59.5996
59.5980
59.6123
59.6482
59.7312
59.8273
59.8902
59.9150
59.9166
59.9034
59.8571
59.8085
59.7733
59.7364
59.6907
59.6524
59.6579
59.6922
59.7409
59.8069
59.9038
60.85
60.1019
60.1780
60.2070
60.2029
60.1940
60.1744
60.1441
60.1106
60.900
60.482
60.39
59.9931
60.183
60.508
60.913
60.1728
60.2727
60.3579
60.3948
60.4076
60.3942
60.3420
60.2710
60.2125
60.1496
60.817
59.9988
59.9538
59.9396
59.9329
59.9436
59.9802
60.298
60.752
60.1067
60.975
60.551
60.27
59.9391
59.8697
59.7964
59.7332
59.6682
59.5882
59.5309
59.5140
59.5178
59.5362
59.5913
59.6809
59.7736
59.8276
59.8424
59.8430
59.8221
59.7707
59.7262
59.6931
59.6552
59.6030
59.5716
59.5836
59.6138
59.6597
59.7246
59.8156
59.9119
60.30
60.694
60.954
60.993
60.959
60.849
60.666
60.422
60.284
59.9902
59.9579
59.9624
59.9934
60.322
60.804
60.1744
60.2764
60.3480
60.3797
60.3817
60.3647
60.3035
60.2364
60.1773
60.1174
60.443
59.9773
59.9455
59.9429
59.9440
59.9675
60.196
60.755
60.1254
60.1561
60.1430
60.994
60.489
59.9890
59.9190
59.8523
59.7932
59.7191
59.6385
59.5911
59.5820
59.5927
59.6115
59.6786
59.7723
59.8537
59.8956
59.9094
59.9114
59.8821
59.8322
59.7943
59.7618
59.7270
59.6805
59.6651
59.6909
59.7285
59.7817
59.8617
59.9608
60.548
60.1374
60.1837
60.1917
60.1842
60.1692
60.1476
60.1166
60.900
60.657
60.220
59.9970
60.184
60.582
60.967
60.1633
60.2659
60.3650
60.4252
60.4423
60.4383
60.4052
60.3340
60.2684
60.2063
60.1432
60.583
59.9992
59.9770
59.9726
59.9840
60.83
60.605
60.1083
60.1483
60.1631
60.1383
60.916
60.322
59.9654
59.9002
59.8330
59.7794
59.7027
59.6346
59.6033
59.6082
59.6237
59.6582
59.7392
59.8355
59.9072
59.9341
59.9331
59.9209
59.8728
59.8167
59.7737
59.7305
59.6784
59.6286
59.6257
59.6512
59.6901
59.7501
59.8395
59.9406
60.391
60.1206
60.1642
60.1702
60.1643
60.1504
60.1273
60.948
60.704
60.320
59.9863
59.9707
59.9920
60.252
60.629
60.1402
60.2410
60.3264
60.3697
60.3848
60.3727
60.3263
60.2562
60.1940
60.1336
60.641
59.9860
59.9418
59.9314
59.9311
59.9446
59.9811
60.402
60.903
60.1308
60.1332
60.997
60.483
59.9866
59.9191
59.8456
59.7785
59.7168
59.6295
59.5644
59.5399
59.5448
59.5581
59.6068
59.6957
59.7913
59.8507
59.8777
59.8857
59.8724
59.8254
59.7842
59.7515
59.7165
59.6686
59.6325
59.6366
59.6641
59.7062
59.7701
59.8631
59.9592
60.560
60.1208
60.1454
60.1453
60.1408
60.1275
60.1014
60.721
60.555
60.128
59.9770
59.9765
60.80
60.436
60.913
60.1787
60.2823
60.3589
60.3895
60.3918
60.3692
60.3103
60.2395
60.1755
60.1102
60.363
59.9606
59.9218
59.9114
59.9128
59.9285
59.9750
60.341
60.836
60.1169
60.1083
60.657
60.153
59.9550
59.8923
59.8241
59.7662
59.7009
59.6232
59.5725
59.5570
59.5644
59.5828
59.6405
59.7339
59.8226
59.8714
59.8889
59.8881
59.8578
59.8076
59.7676
59.7325
59.6952
59.6455
59.6242
59.6415
59.6775
59.7278
59.8058
59.9073
60.34
60.971
60.1579
60.1779
60.1788
60.1673
60.1490
60.1179
60.840
60.586
60.111
59.9774
59.9843
60.148
60.489
60.1114
60.2094
60.3104
60.3746
60.4003
60.4062
60.3787
60.3174
60.2542
60.1970
60.1317
60.543
59.9873
59.9585
59.9502
59.9531
59.9756
60.247
60.749
60.1158
60.1322
60.1103
60.606
59.9996
59.9342
59.8643
59.7949
59.7372
59.6606
59.5842
59.5432
59.5391
59.5478
59.5775
59.6541
59.7535
59.8334
59.8667
59.8794
59.8750
59.8359
59.7855
59.7475
59.7114
59.6672
59.6139
59.6001
59.6188
59.6530
59.7041
59.7855
59.8867
59.9844
60.700
60.1230
60.1359
60.1409
60.1331
60.1186
60.906
60.701
60.422
59.9938
59.9739
59.9932
60.272
60.606
60.1344
60.2380
60.3311
60.3843
60.4040
60.3998
60.3627
60.2939
60.2319
60.1685
60.1044
60.202
59.9646
59.9485
59.9488
59.9564
59.9910
60.516
60.1067
60.1544
60.1677
60.1434
60.980
60.423
59.9783
59.9088
59.8417
59.7802
59.6965
59.6248
59.5957
59.5947
59.6050
59.6435
59.7288
59.8257
59.8927
59.9219
59.9285
59.9166
59.8728
59.8282
59.7963
59.7614
59.7134
59.6720
59.6729
59.7010
59.7394
59.7970
59.8893
59.9875
60.812
60.1560
60.1909
60.1927
60.1850
60.1699
60.1450
60.1076
60.847
60.424
59.9954
59.9879
60.126
60.511
60.976
60.1886
60.2974
60.3851
60.4282
60.4413
60.4299
60.3776
60.3068
60.2463
60.1788
60.1036
60.171
59.9729
59.9597
59.9572
59.9699
60.140
60.729
60.1251
60.1659
60.1670
60.1315
60.835
60.217
59.9581
59.8820
59.8154
59.7483
59.6661
59.6066
59.5929
59.6019
59.6202
59.6852
59.7843
59.8776
59.9344
59.9547
59.9554
59.9277
59.8718
59.8264
59.7853
59.7396
59.6856
59.6564
59.6631
59.6945
59.7408
59.8163
59.9186
60.226
60.1223
60.1889
60.2149
60.2197
60.2120
60.1961
60.1677
60.1384
60.1129
60.583
60.180
60.187
60.433
60.713
60.1207
60.2128
60.3086
60.3784
60.4065
60.4118
60.3892
60.3296
60.2674
60.2075
60.1421
60.651
59.9927
59.9650
59.9592
59.9600
59.9817
60.341
60.874
60.1395
60.1648
60.1453
60.1001
60.429
59.9738
59.9025
59.8286
59.7646
59.6800
59.5956
59.5455
59.5342
59.5409
59.5647
59.6382
59.7366
59.8241
59.8660
59.8837
59.8830
59.8556
59.8160
59.7897
59.7668
59.7361
59.6946
59.6988
59.7375
59.7954
59.8754
59.9891
60.1266
60.2673
60.4011
60.5018
60.5697
60.6278
60.6829
60.7360
60.7832
60.8347
60.8833
60.9262
61.18
61.1195
61.2538
61.4014
61.6006
61.8205
62.184
62.1762
62.3110
62.4231
62.4927
62.5612
62.6407
62.7141
62.7743
62.8641
63.31
63.1525
63.3203
63.5237
63.7499
63.9771
64.1853
64.3503
64.4859
64.6210
64.7460
64.8708
65.54
65.1417
65.2590
65.4133
65.6047
65.8071
66.403
66.3413
66.6525
66.9176
67.1508
67.3720
67.5512
67.7233
67.9180
68.1159
68.2973
68.5233
68.7902
69.614
69.3634
69.7071
70.532
70.3791
70.6569
70.9026
71.1472
71.3734
71.6010
71.8442
72.543
72.2952
72.5745
72.8502
73.1564
73.5306
73.8921
74.1975
74.4805
74.7112
74.9077
75.1208
75.3320
75.5240
75.7769
76.452
76.3156
76.6273
76.9630
77.2895
77.5611
77.7920
78.193
78.2342
78.4584
78.6957
78.9033
79.1602
79.4351
79.7218
80.1033
80.5021
80.8316
81.1397
81.3997
81.6366
81.8964
82.1493
82.4173
82.7406
83.535
83.4107
83.8056
84.1976
84.5361
84.8400
85.1337
85.4100
85.7084
85.9785
86.2635
86.5826
86.8818
87.2685
87.6873
88.333
88.3553
88.5966
88.8285
89.741
89.3006
89.5957
89.8932
90.2027
90.5644
90.9345
91.2465
91.5108
91.7608
92.15
92.2775
92.5130
92.7852
93.677
93.3848
93.8133
94.1898
94.5290
94.8130
95.681
95.3566
95.6260
95.9698
96.3106
96.6730
97.904
97.4900
97.8210
98.1380
98.4224
98.7318
99.153
99.3290
99.6460
99.9689
100.4073
100.7904
101.1375
101.3873
101.6273
101.8826
102.1490
102.4603
102.7498
103.1008
103.4684
103.7731
104.433
104.2906
104.5659
104.8401
105.1144
105.3975
105.7156
106.1566
106.5232
106.8534
107.988
107.3797
107.6537
107.9957
108.3366
108.7028
109.1208
109.4935
109.8193
110.1169
110.4201
110.7294
111.462
111.3490
111.6857
112.1185
112.4799
112.7873
113.95
113.2723
113.5385
113.8584
114.1450
114.5072
114.8727
115.1563
115.4108
115.6537
115.9470
116.2104
116.4847
116.7921
117.2310
117.5872
117.8959
118.1400
118.4286
118.7367
119.889
119.4298
119.8450
120.2146
120.5413
120.8268
121.1514
121.4409
121.7751
122.546
122.4887
122.8725
123.2011
123.4175
123.6764
123.9624
124.2774
124.5778
124.9567
125.2905
125.5636
125.8009
126.1147
126.3854
126.6672
126.9679
127.4078
127.7642
128.397
128.3027
128.5908
128.9548
129.2794
129.6738
130.708
130.3966
130.6834
131.39
131.2971
131.6220
131.9023
132.3406
132.7147
132.9751
133.2094
133.4736
133.8086
134.784
134.4424
134.7844
135.572
135.2906
135.6006
135.8768
136.1246
136.4941
136.9038
137.2502
137.4843
137.7698
138.1018
138.4307
138.8049
139.2086
139.5414
139.8238
140.1561
140.4635
140.7550
141.924
141.5101
141.8626
142.629
142.3175
142.6366
142.9142
143.2536
143.6147
143.8927
144.1202
144.4334
144.7129
144.9409
145.3551
145.7361
146.383
146.2894
146.5886
146.9576
147.2828
147.7035
148.528
148.3508
148.6696
148.9815
149.2786
149.6201
150.412
150.3840
150.5868
150.8520
151.1962
151.4671
151.8472
152.1614
152.4131
152.7080
152.9978
153.2513
153.6047
154.140
154.3323
154.5693
154.8666
155.2352
155.5646
155.9732
156.3100
156.5816
156.9124
157.2439
157.4829
157.9139
158.2977
158.5181
158.7628
159.948
159.3639
159.7202
160.506
160.3016
160.5842
160.8813
161.1236
161.4947
161.8945
162.1824
162.4424
162.7741
163.1079
163.4751
163.8527
164.1743
164.4676
164.7895
165.753
165.4308
165.8340
166.1074
166.3367
166.6550
166.9271
167.2642
167.5992
167.8537
168.1488
168.4512
168.6679
169.916
169.4783
169.7131
169.9946
170.3705
170.6802
171.930
171.4361
171.6981
172.336
172.3591
172.6239
173.483
173.3677
173.5741
173.8855
174.1625
174.4915
174.8193
175.565
175.3546
175.6589
175.8625
176.3044
176.6643
176.8720
177.1780
177.5307
177.8722
178.2444
178.5550
178.8632
179.1966
179.4143
179.8354
180.2132
180.3839
180.6650
180.9795
181.2760
181.6183
181.8603
182.1589
182.4650
182.6664
183.1080
183.4453
183.6666
184.52
184.3282
184.7107
185.604
185.3201
185.6591
185.9806
186.2594
186.6786
186.9255
187.1548
187.5175
187.7633
188.1367
188.4083
188.6668
188.9913
189.1886
189.6300
189.9927
190.2108
190.5535
190.8767
191.2554
191.6077
191.8641
192.2083
192.4884
192.8271
193.2356
193.4109
193.6841
194.130
194.3057
194.6442
194.8606
195.1813
195.4598
195.7592
196.1764
196.4099
196.7007
197.783
197.4048
197.7750
198.474
198.3755
198.6948
198.9847
199.4065
199.5916
199.8581
200.1877
200.4815
200.8172
201.245
201.3665
201.6134
201.9702
202.3693
202.5688
202.9103
203.2404
203.6189
203.9649
204.2261
204.5822
204.7935
205.2095
205.5487
205.7357
206.1095
206.3420
206.7086
206.9628
207.2662
207.5783
207.8362
208.2697
208.4892
208.8005
209.1532
209.5110
209.8650
210.1204
210.4829
210.6894
211.1112
211.4221
211.6037
211.9791
212.2189
212.5773
212.7964
213.1334
213.3797
213.7477
214.1354
214.3377
214.7205
215.29
215.3903
215.6920
215.9920
216.3199
216.6009
217.275
217.1793
217.5175
217.7626
218.1202
218.3866
218.6694
218.9918
219.2671
219.7023
219.8954
220.2588
220.5603
220.9475
221.2664
221.5590
221.8998
222.1674
222.5902
222.7391
223.958
223.3242
223.6849
223.9204
224.2350
224.4983
224.8476
225.2302
225.4292
225.8294
226.1096
226.4849
226.7407
227.997
227.3163
227.7303
228.213
228.2196
228.5769
228.8593
229.1835
229.4106
229.7720
229.9810
230.4338
230.6278
230.9906
231.2835
231.6598
231.9463
232.2645
232.5291
232.8823
233.2295
233.3993
233.7830
234.370
234.3732
234.6004
234.9677
235.1786
235.6398
235.8267
236.2053
236.4801
236.8584
237.1197
237.4797
237.6883
238.1089
238.3650
238.6128
238.9144
239.2424
239.5120
239.7981
240.601
240.4064
240.7617
240.9674
241.3721
241.6820
242.344
242.2872
242.6387
242.8816
243.2968
243.4236
243.8136
244.414
244.3879
244.6068
244.9671
245.1958
245.6351
245.8052
246.2108
246.4840
246.8646
247.1096
247.4912
247.6973
248.1446
248.2720
248.6634
248.8884
249.2477
249.4671
249.8308
250.640
250.4954
250.6655
251.835
251.3647
251.7307
251.9776
252.3306
252.5793
252.9677
253.1053
253.4743
253.7479
254.468
254.3227
254.5714
254.9441
255.2536
255.5241
255.8592
256.2186
256.4946
256.8448
257.272
257.4781
257.6590
258.219
258.2252
258.5947
258.8090
259.1967
259.4076
259.8559
260.249
260.4454
260.7337
261.839
261.3513
261.6246
261.9787
262.2572
262.5276
262.7818
263.1438
263.3540
263.7524
263.9342
264.4090
264.5719
264.9989
265.2767
265.6356
265.8902
266.1577
266.5151
266.7802
267.838
267.3145
267.6832
267.8890
268.2860
268.4940
268.9300
269.949
269.4976
269.8117
270.1082
270.4450
270.6329
271.988
271.2402
271.6365
271.8431
272.1933
272.4324
272.6997
273.856
273.3550
273.7098
273.9822
274.3761
274.6156
274.9930
275.2122
275.5711
275.7593
276.422
276.3892
276.5873
276.9921
277.1884
277.6151
277.7739
278.1633
278.4970
278.7556
279.1463
279.3103
279.7657
279.8522
280.2312
280.4990
280.7242
281.978
281.2626
281.7535
281.8915
282.3034
282.5938
282.8830
283.2483
283.4092
283.8857
283.9665
284.3594
284.6228
284.8569
285.2426
285.4062
285.8886
286.350
286.4385
286.7492
287.129
287.4163
287.5748
288.151
288.1260
288.4622
288.7825
288.9899
289.3975
289.6079
289.9953
290.2307
290.5482
290.9268
291.1630
291.5346
291.7733
292.474
292.3640
292.5690
292.9443
293.1516
293.3927
293.8162
294.30
294.4203
294.6519
294.9614
295.2430
295.4035
295.8460
295.8676
296.2228
296.4633
296.6154
296.9794
297.1126
297.4287
297.6038
297.8377
298.1466
298.2698
298.5032
298.7393
298.8321
299.1321
299.2177
299.4196
299.6060
299.6670
300.359
300.199
300.3036
300.4859
300.5880
300.8594
300.8847
301.741
301.1796
301.2469
301.4635
301.5029
301.5837
301.8609
301.8562
302.1209
302.1911
302.2876
302.4756
302.4522
302.6958
302.6167
302.7193
302.8668
302.8622
303.38
303.1128
303.1365
303.3271
303.3545
303.4864
303.5535
303.5114
303.7642
303.5992
303.7409
303.8168
303.7860
303.9472
303.9316
304.45
304.1070
304.1272
304.2672
304.2546
304.2249
304.4455
304.2851
304.4444
304.4403
304.3939
304.5685
304.5055
304.6306
304.6377
304.6700
304.8042
304.7560
304.7550
304.8997
304.7715
304.9211
304.8603
304.8289
304.9590
304.8568
305.219
304.9406
304.9934
305.928
305.458
305.878
305.1309
305.381
305.1589
305.630
305.723
305.1427
305.266
305.2211
305.749
305.1548
305.2241
305.1837
305.2668
305.2279
305.1851
305.2673
305.1691
305.2210
305.2237
305.1066
305.3178
305.1514
305.2656
305.2965
305.2536
305.3597
305.2569
305.2641
305.2879
305.1980
305.2703
305.2143
305.1107
305.3036
305.1473
305.2859
305.2771
305.2304
305.3471
305.2137
305.2842
305.2312
305.1568
305.2401
305.1542
305.902
305.2498
305.1245
305.2630
305.2227
305.1951
305.2941
305.1578
305.2723
305.1296
305.952
305.1651
305.702
305.622
305.1519
305.539
305.1814
305.1208
305.1278
305.1694
305.368
305.1918
304.9843
305.73
305.516
304.9536
305.123
305.5
304.9500
305.437
304.9871
305.424
305.145
304.8912
305.769
304.8414
304.9095
304.9114
304.8152
304.9175
304.8410
304.8579
304.8955
304.8477
304.9349
304.8548
304.7597
304.9187
304.7030
304.8037
304.7482
304.6557
304.7676
304.6429
304.7224
304.6694
304.6582
304.7452
304.6487
304.6119
304.7077
304.5492
304.6473
304.5447
304.4858
304.5673
304.4349
304.5745
304.4305
304.4687
304.5337
304.4539
304.4947
304.4823
304.3858
304.4656
304.3526
304.3651
304.3748
304.2449
304.4328
304.2446
304.3371
304.3582
304.2984
304.3934
304.2846
304.2664
304.2738
304.1746
304.2337
304.1629
304.628
304.2476
304.823
304.2111
304.1846
304.1306
304.2407
304.971
304.1751
304.758
304.141
304.854
303.9779
303.9461
304.649
303.9498
304.757
304.223
304.171
304.737
303.9413
304.838
303.8727
303.8891
303.9353
303.8323
303.8843
303.8786
303.8245
303.9198
303.8696
303.9238
303.8860
303.7718
303.9478
303.7083
303.7954
303.7808
303.6759
303.7885
303.6913
303.7333
303.7352
303.7046
303.7944
303.7064
303.6548
303.7804
303.6057
303.7203
303.6415
303.5664
303.6711
303.5481
303.6791
303.5634
303.5965
303.6582
303.5827
303.6173
303.6184
303.5124
303.5974
303.4765
303.4800
303.4937
303.3647
303.5503
303.3600
303.4601
303.4836
303.4241
303.5202
303.4035
303.4061
303.4071
303.3105
303.3733
303.2864
303.1953
303.3675
303.2037
303.3387
303.2980
303.2478
303.3491
303.2075
303.3177
303.1703
303.1472
303.2158
303.1116
303.1190
303.1818
303.926
303.2095
303.1519
303.1801
303.1813
303.558
303.2242
302.9846
303.442
303.552
302.9515
303.465
302.9761
302.9833
303.200
302.9794
303.678
302.9804
302.9080
303.555
302.8598
302.9664
302.8961
302.8129
302.9234
302.8011
302.9236
302.8212
302.8469
302.9231
302.8433
302.8736
302.8887
302.7838
302.8720
302.7604
302.7767
302.7881
302.6606
302.8520
302.6652
302.7762
302.8053
302.7443
302.8412
302.7263
302.7404
302.7310
302.6411
302.7123
302.6259
302.5505
302.7192
302.5822
302.7123
302.6721
302.6475
302.7381
302.6042
302.7331
302.5607
302.5561
302.6156
302.5213
302.5585
302.5815
302.5259
302.6346
302.5779
302.6425
302.6111
302.4995
302.6822
302.4474
302.5364
302.5213
302.4243
302.5472
302.4506
302.5050
302.4877
302.4652
302.5629
302.4697
302.4371
302.5418
302.3854
302.4872
302.3894
302.3404
302.4130
302.2871
302.4499
302.2938
302.3572
302.4143
302.3520
302.4222
302.3592
302.3165
302.3699
302.2711
302.3310
302.2821
302.1778
302.3666
302.2063
302.3356
302.3174
302.2689
302.3796
302.2333
302.3280
302.2113
302.1669
302.2406
302.1319
302.1274
302.2082
302.1245
302.2438
302.1800
302.2168
302.2269
302.1018
302.2768
302.352
302.1050
302.1239
302.270
302.1284
302.499
302.728
302.984
302.690
302.1615
302.714
302.250
302.1608
301.9835
302.994
302.206
301.9552
302.546
301.9414
302.911
301.9537
302.72
302.760
302.99
302.694
302.330
301.9658
302.334
301.9288
301.9744
301.9332
301.8229
302.233
301.8516
301.9877
301.9818
301.9286
302.450
301.9149
302.82
301.9087
301.8591
301.9384
301.8400
301.8359
301.9314
301.8371
301.9632
301.9072
301.9412
301.9614
301.8431
302.150
301.7871
301.8562
301.8751
301.7750
301.8779
301.8115
301.8302
301.8612
301.8329
301.9251
301.8387
301.7869
301.9240
301.7463
301.8546
301.7739
301.7149
301.8143
301.6973
301.8431
301.7045
301.7655
301.8278
301.7599
301.8238
301.7845
301.7239
301.7902
301.6885
301.7435
301.6971
301.5964
301.7960
301.6287
301.7674
301.7553
301.7079
301.8260
301.6951
301.7888
301.6744
301.6404
301.7146
301.6088
301.6149
301.6895
301.6101
301.7389
301.6885
301.7290
301.7400
301.6287
301.8076
301.5761
301.6545
301.6634
301.5631
301.6767
301.5958
301.6336
301.6415
301.6204
301.7149
301.6273
301.5930
301.7043
301.5477
301.6611
301.5689
301.5269
301.6068
301.4819
301.6466
301.4990
301.5670
301.6202
301.5645
301.6449
301.5716
301.5375
301.5744
301.4756
301.5408
301.4777
301.3850
301.5705
301.4176
301.5545
301.5312
301.4916
301.5969
301.4582
301.5789
301.4259
301.4160
301.4840
301.3877
301.4222
301.4672
301.4112
301.5202
301.4714
301.5364
301.5027
301.4003
301.5770
301.3448
301.4517
301.4388
301.3524
301.4740
301.3657
301.4439
301.4040
301.4069
301.5024
301.4128
301.4118
301.4773
301.3569
301.4538
301.3460
301.3446
301.3821
301.2564
301.4463
301.2709
301.3674
301.4068
301.3577
301.4642
301.3498
301.3711
301.3642
301.2856
301.3717
301.2806
301.2210
301.3831
301.2697
301.4066
301.3619
301.3567
301.4305
301.3056
301.4602
301.2598
301.2890
301.3367
301.2428
301.3177
301.2937
301.2802
301.3573
301.3218
301.4101
301.3414
301.2636
301.4245
301.2292
301.3489
301.2983
301.2234
301.3399
301.2234
301.3499
301.2412
301.2737
301.3543
301.2861
301.3318
301.3188
301.2428
301.3230
301.2206
301.2661
301.2424
301.1289
301.3278
301.1596
301.2929
301.2870
301.2361
301.3476
301.2114
301.2930
301.1980
301.1454
301.2268
301.1241
301.1183
301.2118
301.1281
301.2492
301.1939
301.2291
301.2327
301.1151
301.2925
301.581
301.1419
301.1530
301.554
301.1697
301.811
301.1309
301.1363
301.1166
301.2126
301.1257
301.1029
301.2077
301.606
301.1678
301.715
301.468
301.1118
300.9905
301.1647
301.2
301.898
301.1398
301.825
301.1773
301.856
301.815
301.967
301.43
301.776
300.9996
300.9279
301.986
300.9654
301.991
301.605
301.429
301.1330
301.60
301.1513
300.9601
300.9842
301.424
300.9504
301.184
301.67
300.9865
301.738
301.315
301.1155
301.523
300.9746
301.1371
300.9345
301.495
300.9938
300.9139
301.319
300.9170
301.379
300.9335
300.9704
301.451
300.9758
301.260
301.120
300.9324
301.133
300.9034
300.9473
300.9240
300.8105
301.31
300.8272
300.9638
300.9607
300.9121
301.308
300.9000
300.9871
300.8778
300.8363
300.9190
300.8186
300.8281
300.9045
300.8233
300.9476
300.8881
300.9320
300.9279
300.8178
300.9954
300.7642
300.8558
300.8470
300.7482
300.8703
300.7776
300.8385
300.8148
300.8126
300.9099
300.8202
300.8211
300.9006
300.7611
300.8658
300.7714
300.7622
300.8014
300.6802
300.8695
300.6935
300.8030
300.8387
300.7815
300.8962
300.7889
300.8216
300.8006
300.7254
300.8110
300.7202
300.6718
300.8185
300.7042
300.8366
300.7899
300.7943
300.8550
300.7280
300.8890
300.6753
300.7294
300.7567
300.6693
300.7619
300.7072
300.7146
300.7676
300.7378
300.8296
300.7501
300.6995
300.8397
300.6745
300.7878
300.7153
300.6666
300.7641
300.6471
300.8096
300.6705
300.7425
300.8050
300.7599
300.8431
300.7810
300.7521
300.7977
300.7023
300.7740
300.7131
300.6275
300.8175
300.6756
300.8147
300.7864
300.7603
300.8653
300.7380
300.8723
300.7036
300.7150
300.7754
300.6838
300.7377
300.7512
300.7114
300.8170
300.7793
300.8578
300.8053
300.7223
300.8992
300.6947
300.8096
300.7676
300.6850
300.8118
300.7036
300.8240
300.7395
300.7714
300.8557
300.7825
300.8269
300.8326
300.7429
300.8306
300.7224
300.7585
300.7377
300.6237
300.8237
300.6499
300.7834
300.7804
300.7258
300.8414
300.7057
300.7882
300.6897
300.6428
300.7241
300.6233
300.6315
300.7131
300.6329
300.7510
300.6973
300.7452
300.7441
300.6308
300.8118
300.5788
300.6770
300.6685
300.5727
300.6952
300.5997
300.6738
300.6545
300.6507
300.7404
300.6513
300.6528
300.7262
300.5929
300.7020
300.6026
300.5996
300.6389
300.5189
300.7073
300.5300
300.6399
300.6736
300.6170
300.7284
300.6143
300.6564
300.6314
300.5590
300.6418
300.5494
300.5177
300.6549
300.5431
300.6803
300.6329
300.6462
300.6935
300.5754
300.7438
300.5178
300.5859
300.6177
300.5183
300.6198
300.5600
300.5787
300.6131
300.5901
300.6832
300.5962
300.5563
300.6885
300.5230
300.6352
300.5573
300.5100
300.5911
300.4726
300.6374
300.4813
300.5646
300.6178
300.5585
300.6500
300.5686
300.5599
300.5802
300.4925
300.5705
300.4941
300.4309
300.6054
300.4775
300.6190
300.5841
300.5643
300.6542
300.5303
300.6752
300.4841
300.5099
300.5550
300.4662
300.5372
300.5147
300.4941
300.5761
300.5448
300.6230
300.5557
300.4902
300.6472
300.4603
300.5765
300.5209
300.4508
300.5642
300.4544
300.5954
300.4692
300.5287
300.5964
300.5393
300.6093
300.5723
300.5172
300.5833
300.4915
300.5492
300.4976
300.4087
300.6064
300.4590
300.6024
300.5881
300.5528
300.6634
300.5298
300.6523
300.5088
300.4991
300.5684
300.4751
300.5189
300.5467
300.4992
300.6127
300.5675
300.6396
300.5974
300.5089
300.6878
300.4670
300.5836
300.5521
300.4627
300.5873
300.4752
300.5931
300.5150
300.5412
300.6275
300.5504
300.5909
300.6126
300.5197
300.6057
300.5020
300.5379
300.5198
300.4096
300.6096
300.4331
300.5603
300.5679
300.5219
300.6312
300.5016
300.5928
300.4895
300.4523
300.5341
300.4342
300.4395
300.5172
300.4426
300.5578
300.5041
300.5566
300.5477
300.4417
300.6274
300.3956
300.4929
300.4906
300.3973
300.5197
300.4306
300.5091
300.4750
300.4843
300.5798
300.4911
300.4955
300.5634
300.4429
300.5387
300.4330
300.4372
300.4634
300.3475
300.5420
300.3602
300.4784
300.5031
300.4476
300.5598
300.4348
300.4898
300.4399
300.3736
300.4605
300.3554
300.3248
300.4425
300.3468
300.4764
300.4221
300.4461
300.4741
300.3581
300.5324
300.3035
300.3777
300.3931
300.3044
300.4184
300.3371
300.3820
300.3894
300.3750
300.4713
300.3785
300.3583
300.4597
300.3168
300.4258
300.3244
300.3009
300.3584
300.2346
300.4206
300.2498
300.3526
300.3938
300.3415
300.4455
300.3384
300.3558
300.3492
300.2723
300.3524
300.2631
300.2116
300.3605
300.2519
300.3919
300.3497
300.3586
300.4126
300.2904
300.4611
300.2436
300.3020
300.3318
300.2420
300.3409
300.2814
300.3022
300.3421
300.3104
300.4122
300.3267
300.2860
300.4161
300.2553
300.3703
300.2879
300.2450
300.3244
300.2047
300.3769
300.2214
300.3077
300.3564
300.3056
300.4055
300.3218
300.3172
300.3406
300.2578
300.3326
300.2524
300.1924
300.3658
300.2415
300.3842
300.3495
300.3379
300.4190
300.2956
300.4515
300.2557
300.2966
300.3415
300.2520
300.3358
300.3025
300.3006
300.3627
300.3325
300.4223
300.3450
300.2915
300.4351
300.2558
300.3735
300.2978
300.2399
300.3405
300.2267
300.3786
300.2385
300.3106
300.3718
300.3156
300.4001
300.3384
300.3142
300.3579
300.2617
300.3287
300.2615
300.1849
300.3646
300.2239
300.3616
300.3273
300.3002
300.4035
300.2706
300.4087
300.2261
300.2417
300.2915
300.1896
300.2525
300.2407
300.2182
300.2997
300.2605
300.3420
300.2767
300.2090
300.3706
300.1742
300.2849
300.2301
300.1589
300.2716
300.1569
300.2937
300.1707
300.2304
300.3034
300.2393
300.3031
300.2617
300.2196
300.2787
300.1800
300.2402
300.1865
300.959
300.2915
300.1407
300.2767
300.2583
300.2215
300.3255
300.1928
300.3220
300.1579
300.1650
300.2280
300.1315
300.1861
300.1939
300.1557
300.2544
300.2163
300.2948
300.2328
300.1591
300.3322
300.1334
300.2489
300.1979
300.1172
300.2462
300.1364
300.2673
300.1582
300.2049
300.2845
300.2171
300.2774
300.2549
300.1955
300.2716
300.1697
300.2242
300.1780
300.772
300.2751
300.1201
300.2584
300.2449
300.2077
300.3190
300.1871
300.3060
300.1622
300.1492
300.2207
300.1241
300.1625
300.1915
300.1461
300.2455
300.1985
300.2727
300.2238
300.1348
300.3115
300.1029
300.2186
300.1827
300.1003
300.2290
300.1181
300.2371
300.1492
300.1830
300.2639
300.1952
300.2404
300.2345
300.1601
300.2389
300.1341
300.1763
300.1509
300.440
300.2388
300.742
300.2162
300.2086
300.1641
300.2807
300.1443
300.2540
300.1304
300.1092
300.1857
300.856
300.1148
300.1604
300.1022
300.2133
300.1667
300.2444
300.2171
300.1159
300.2988
300.812
300.1951
300.1683
300.847
300.2127
300.1040
300.2131
300.1434
300.1660
300.2520
300.1746
300.2105
300.2264
300.1420
300.2236
300.1150
300.1537
300.1336
300.273
300.2352
300.643
300.1981
300.1924
300.1462
300.2669
300.1371
300.2327
300.1202
300.890
300.1688
300.704
300.895
300.1555
300.917
300.2117
300.1615
300.2231
300.1968
300.966
300.2811
300.573
300.1627
300.1466
300.626
300.1910
300.838
300.1847
300.1238
300.1418
300.2324
300.1451
300.1754
300.2072
300.1114
300.2054
300.965
300.1288
300.1255
300.128
300.2145
300.396
300.1705
300.1766
300.1304
300.2544
300.1194
300.2088
300.1103
300.758
300.1593
300.603
300.751
300.1513
300.804
300.2095
300.1632
300.2170
300.2066
300.1090
300.2933
300.648
300.1677
300.1542
300.594
300.1885
300.904
300.1717
300.1260
300.1360
300.2263
300.1405
300.1600
300.2040
300.992
300.2019
300.950
300.1153
300.1242
300.129
300.2139
300.375
300.1664
300.1817
300.1364
300.2608
300.1360
300.2150
300.1343
300.935
300.1744
300.780
300.828
300.1753
300.1004
300.2286
300.1820
300.2342
300.2341
300.1284
300.3132
300.861
300.1825
300.1788
300.901
300.2124
300.1190
300.2001
300.1748
300.1804
300.2763
300.1936
300.2072
300.2749
300.1567
300.2601
300.1615
300.1768
300.1971
300.854
300.2875
300.1152
300.2441
300.2680
300.2192
300.3444
300.2274
300.2922
300.2406
300.1866
300.2743
300.1803
300.1706
300.2859
300.1954
300.3304
300.2808
300.3172
300.3399
300.2270
300.4090
300.1779
300.2648
300.2791
300.1875
300.3059
300.2250
300.2783
300.2768
300.2737
300.3729
300.2865
300.2834
300.3757
300.2398
300.3500
300.2608
300.2512
300.2987
300.1873
300.3776
300.2039
300.3224
300.3608
300.3068
300.4222
300.3126
300.3507
300.3269
300.2583
300.3468
300.2508
300.2126
300.3540
300.2472
300.3806
300.3359
300.3496
300.3898
300.2724
300.4463
300.2160
300.2811
300.3097
300.2124
300.3218
300.2570
300.2857
300.3099
300.2931
300.3920
300.2993
300.2693
300.3849
300.2347
300.3465
300.2594
300.2261
300.2957
300.1782
300.3591
300.1913
300.2851
300.3384
300.2864
300.3853
300.2874
300.3001
300.2989
300.2175
300.2973
300.2083
300.1508
300.3122
300.1934
300.3307
300.2890
300.2860
300.3483
300.2291
300.3950
300.1799
300.2305
300.2692
300.1791
300.2695
300.2230
300.2358
300.2788
300.2586
300.3542
300.2730
300.2325
300.3721
300.2027
300.3185
300.2443
300.2020
300.2872
300.1744
300.3530
300.1990
300.2837
300.3426
300.2895
300.3770
300.2989
300.2892
300.3110
300.2241
300.3054
300.2275
300.1544
300.3273
300.2034
300.3425
300.3088
300.2902
300.3707
300.2472
300.4052
300.2050
300.2373
300.2868
300.2008
300.2752
300.2463
300.2475
300.3139
300.2856
300.3841
300.3096
300.2437
300.4028
300.2260
300.3408
300.2822
300.2218
300.3162
300.2030
300.3599
300.2229
300.2872
300.3572
300.3023
300.3739
300.3164
300.2824
300.3235
300.2328
300.3012
300.2398
300.1532
300.3406
300.1977
300.3345
300.3081
300.2823
300.3747
300.2515
300.3888
300.2117
300.2310
300.2865
300.1943
300.2595
300.2601
300.2360
300.3200
300.2799
300.3657
300.3014
300.2317
300.3961
300.1950
300.3156
300.2644
300.1878
300.3014
300.1891
300.3251
300.2057
300.2598
300.3348
300.2664
300.3273
300.2942
300.2425
300.3011
300.1995
300.2609
300.2095
300.1175
300.3161
300.1549
300.2958
300.2825
300.2480
300.3527
300.2260
300.3469
300.1871
300.1889
300.2570
300.1587
300.2057
300.2327
300.1929
300.2880
300.2463
300.3295
300.2749
300.1978
300.3750
300.1643
300.2764
300.2333
300.1501
300.2751
300.1661
300.2900
300.1902
300.2300
300.3145
300.2467
300.2930
300.2856
300.2192
300.3007
300.1967
300.2432
300.2055
300.1054
300.3099
300.1460
300.2806
300.2754
300.2321
300.3476
300.2186
300.3306
300.1904
300.1780
300.2576
300.1589
300.1914
300.2285
300.1740
300.2872
300.2367
300.3055
300.2668
300.1756
300.3576
300.1374
300.2440
300.2067
300.1240
300.2531
300.1396
300.2507
300.1735
300.2007
300.2872
300.2154
300.2572
300.2676
300.1846
300.2733
300.1733
300.2177
300.1979
300.888
300.2952
300.1292
300.2690
300.2678
300.2226
300.3402
300.2096
300.3051
300.1903
300.1614
300.2476
300.1480
300.1654
300.2271
300.1581
300.2796
300.2271
300.2929
300.2653
300.1633
300.3486
300.1174
300.2183
300.2028
300.1121
300.2297
300.1281
300.2277
300.1609
300.1704
300.2659
300.1834
300.2074
300.2410
300.1440
300.2317
300.1270
300.1593
300.1548
300.373
300.2396
300.599
300.1906
300.2024
300.1562
300.2723
300.1376
300.2253
300.1260
300.783
300.1626
300.646
300.655
300.1445
300.709
300.1901
300.1387
300.1976
300.1827
300.751
300.2610
300.315
300.1306
300.1195
300.295
300.1499
300.464
300.1393
300.938
300.1058
300.2047
300.1184
300.1320
300.1789
300.780
300.1736
300.722
300.1006
300.1041
299.9900
300.1968
300.164
300.1417
300.1519
300.1064
300.2222
300.934
300.1741
300.903
300.428
300.1303
300.287
300.298
300.1215
300.456
300.1645
300.1141
300.1642
300.1560
300.509
300.2363
300.67
300.1014
300.988
300.72
300.1280
300.314
300.1126
300.771
300.817
300.1799
300.935
300.1040
300.1575
300.464
300.1452
300.377
300.484
300.587
299.9388
300.1425
299.9595
300.832
300.1006
300.515
300.1665
300.371
300.1066
300.274
299.9742
300.620
299.9573
299.9487
300.402
299.9603
300.844
300.338
300.757
300.712
299.9619
300.1491
299.9128
300.94
300.24
299.9154
300.400
299.9483
300.274
299.9874
299.9939
300.894
300.31
300.161
300.694
299.9564
300.579
299.9538
299.9671
299.9777
299.8594
300.606
299.8812
300.32
300.220
299.9747
300.897
299.9616
300.342
299.9566
299.9078
299.9963
299.8962
299.8895
299.9816
299.8998
300.273
299.9806
300.269
300.242
299.9154
300.1026
299.8721
299.9704
299.9682
299.8778
300.49
299.9109
299.9939
299.9544
299.9573
300.539
299.9708
299.9859
300.389
299.9308
300.273
299.9305
299.9480
299.9605
299.8450
300.480
299.8752
300.61
300.245
299.9750
300.910
299.9688
300.487
299.9736
299.9244
300.119
299.9120
299.9096
300.34
299.9229
300.494
300.23
300.562
300.565
299.9518
300.1410
299.9118
300.90
300.100
299.9173
300.390
299.9411
300.248
299.9902
299.9959
300.901
300.53
300.186
300.744
299.9625
300.657
299.9566
299.9768
299.9880
299.8725
300.739
299.8954
300.227
300.367
299.9907
300.1072
299.9807
300.538
299.9772
299.9272
300.136
299.9155
299.9185
300.167
299.9374
300.646
300.160
300.630
300.597
299.9529
300.1395
299.9065
300.36
300.18
299.9113
300.315
299.9295
300.125
299.9786
299.9833
300.783
299.9905
300.74
300.649
299.9526
300.502
299.9460
299.9626
299.9698
299.8539
300.562
299.8764
300.72
300.278
299.9818
300.1015
299.9752
300.565
299.9764
299.9304
300.163
299.9213
299.9143
300.101
299.9352
300.580
300.85
300.579
300.582
299.9546
300.1418
299.9119
300.89
300.49
299.9163
300.371
299.9383
300.216
299.9855
299.9956
300.937
300.80
300.166
300.776
299.9695
300.706
299.9725
299.9929
300.3
299.8836
300.937
299.9143
300.385
300.605
300.135
300.1331
300.84
300.814
300.43
299.9584
300.484
299.9467
299.9416
300.365
299.9552
300.817
300.312
300.774
300.741
299.9727
300.1577
299.9252
300.176
300.125
299.9202
300.456
299.9509
300.334
299.9981
300.7
300.996
300.135
300.275
300.836
299.9727
300.727
299.9760
299.9907
300.29
299.8942
300.988
299.9244
300.520
300.690
300.211
300.1370
300.153
300.953
300.202
299.9668
300.579
299.9635
299.9613
300.557
299.9723
300.1008
300.555
300.980
300.1004
299.9942
300.1817
299.9488
300.432
300.406
299.9403
300.635
299.9647
300.379
300.16
300.10
300.1018
300.127
300.234
300.861
299.9739
300.790
299.9789
299.9952
300.120
299.8959
300.972
299.9217
300.529
300.768
300.261
300.1440
300.189
300.870
300.167
299.9653
300.495
299.9503
299.9485
300.468
299.9620
300.869
300.389
300.842
300.857
299.9804
300.1621
299.9272
300.235
300.283
299.9324
300.562
299.9613
300.367
300.117
300.172
300.1084
300.191
300.353
300.1053
299.9891
300.950
299.9949
300.94
300.365
299.9212
300.1172
299.9348
300.572
300.820
300.321
300.1458
300.227
300.873
300.221
299.9719
300.571
299.9527
299.9481
300.511
299.9641
300.864
300.357
300.796
300.814
299.9741
300.1589
299.9223
300.178
300.223
299.9311
300.496
299.9604
300.384
300.145
300.205
300.1186
300.350
300.435
300.1147
299.9993
300.1057
300.109
300.183
300.424
299.9322
300.1307
299.9493
300.732
300.928
300.373
300.1605
300.399
300.966
300.347
299.9825
300.612
299.9614
299.9522
300.570
299.9649
300.942
300.411
300.739
300.808
299.9715
300.1549
299.9187
300.92
300.144
299.9220
300.464
299.9555
300.263
300.52
300.60
300.1052
300.147
300.181
300.881
299.9712
300.749
299.9741
299.9800
299.9992
299.8811
300.841
299.9056
300.216
300.432
299.9873
300.1066
299.9869
300.473
299.9782
299.9196
300.54
299.9006
299.8853
299.9873
299.9015
300.343
299.9853
300.262
300.360
299.9249
300.1128
299.8862
299.9814
299.9845
299.8982
300.230
299.9392
300.134
299.9869
299.9931
300.927
300.65
300.138
300.815
299.9671
300.747
299.9748
299.9847
300.90
299.8883
300.900
299.9139
300.383
300.596
300.120
300.1308
300.114
300.736
300.117
299.9581
300.479
299.9472
299.9384
300.466
299.9588
300.925
300.469
300.895
300.1062
299.9983
300.1822
299.9458
300.402
300.424
299.9496
300.695
299.9811
300.553
300.328
300.363
300.1316
300.438
300.466
300.1208
299.9955
300.994
300.21
300.34
300.286
299.9136
300.1135
299.9309
300.505
300.764
300.256
300.1390
300.180
300.765
300.185
299.9574
300.462
299.9457
299.9312
300.422
299.9505
300.776
300.296
300.713
300.846
299.9726
300.1548
299.9213
300.106
300.214
299.9265
300.447
299.9523
300.178
299.9978
299.9901
300.868
299.9934
299.9950
300.634
299.9319
300.368
299.9299
299.9325
299.9596
299.8423
300.355
299.8498
299.9691
299.9911
299.9381
300.569
299.9303
299.9911
299.9311
299.8785
299.9627
299.8632
299.8544
299.9613
299.8710
299.9974
299.9465
299.9853
299.9941
299.8854
300.723
299.8367
299.9258
299.9326
299.8396
299.9556
299.8666
299.9367
299.9034
299.9071
300.104
299.9219
299.9246
299.9880
299.8706
299.9754
299.8752
299.8831
299.9021
299.7912
299.9907
299.8155
299.9398
299.9595
299.9132
300.354
299.9143
299.9811
299.9133
299.8638
299.9462
299.8437
299.8345
299.9315
299.8441
299.9739
299.9240
299.9671
299.9693
299.8575
300.402
299.8064
299.8998
299.8954
299.7982
299.9227
299.8233
299.8931
299.8557
299.8607
299.9581
299.8738
299.8871
299.9424
299.8278
299.9299
299.8321
299.8487
299.8615
299.7463
299.9518
299.7785
299.9103
299.9284
299.8829
300.79
299.8776
299.9556
299.8769
299.8273
299.9124
299.8079
299.8128
299.8978
299.8165
299.9462
299.8996
299.9441
299.9342
299.8296
300.126
299.7820
299.8827
299.8734
299.7839
299.9089
299.8117
299.8941
299.8474
299.8557
299.9465
299.8662
299.8847
299.9272
299.8194
299.9176
299.8178
299.8411
299.8347
299.7223
299.9283
299.7549
299.8813
299.8906
299.8458
299.9638
299.8329
299.9196
299.8255
299.7834
299.8649
299.7660
299.7761
299.8461
299.7736
299.8906
299.8400
299.9036
299.8849
299.7866
299.9684
299.7437
299.8450
299.8271
299.7399
299.8664
299.7656
299.8694
299.8131
299.8283
299.9200
299.8401
299.8702
299.8974
299.8057
299.8973
299.7906
299.8278
299.8174
299.7044
299.9048
299.7307
299.8632
299.8637
299.8191
299.9358
299.7987
299.8991
299.7877
299.7584
299.8385
299.7387
299.7578
299.8153
299.7561
299.8684
299.8172
299.8870
299.8610
299.7644
299.9521
299.7326
299.8397
299.8184
299.7375
299.8669
299.7622
299.8773
299.8091
299.8399
299.9309
299.8558
299.8969
299.9116
299.8342
299.9197
299.8164
299.8607
299.8390
299.7309
299.9309
299.7646
299.9010
299.8964
299.8550
299.9733
299.8387
299.9429
299.8189
299.7962
299.8733
299.7757
299.7989
299.8414
299.7891
299.8952
299.8478
299.9181
299.8786
299.7818
299.9648
299.7472
299.8548
299.8249
299.7457
299.8782
299.7663
299.8865
299.7984
299.8301
299.9127
299.8468
299.8900
299.8829
299.8143
299.8969
299.7878
299.8372
299.8046
299.7018
299.9035
299.7442
299.8730
299.8658
299.8310
299.9452
299.8122
299.9263
299.7814
299.7683
299.8385
299.7441
299.7828
299.8120
299.7679
299.8791
299.8341
299.9091
299.8627
299.7760
299.9554
299.7484
299.8567
299.8143
299.7346
299.8565
299.7463
299.8745
299.7737
299.8132
299.8922
299.8219
299.8749
299.8527
299.7879
299.8563
299.7533
299.8087
299.7644
299.6654
299.8655
299.7129
299.8544
299.8394
299.8026
299.9186
299.7898
299.9182
299.7663
299.7632
299.8348
299.7469
299.8048
299.8201
299.7922
299.8941
299.8518
299.9356
299.8837
299.8070
299.9770
299.7864
299.9020
299.8544
299.7780
299.9003
299.7855
299.9221
299.8090
299.8537
299.9250
299.8637
299.9293
299.8895
299.8417
299.9030
299.8053
299.8692
299.8211
299.7296
299.9190
299.7729
299.9158
299.8915
299.8571
299.9638
299.8302
299.9653
299.8009
299.8078
299.8664
299.7819
299.8425
299.8381
299.8129
299.9009
299.8563
299.9431
299.8797
299.8035
299.9680
299.7765
299.8890
299.8283
299.7538
299.8589
299.7390
299.8784
299.7493
299.7960
299.8523
299.7875
299.8522
299.7980
299.7510
299.7926
299.6851
299.7438
299.6737
299.5858
299.7636
299.6192
299.7541
299.7211
299.6947
299.7842
299.6457
299.7856
299.5992
299.6188
299.6632
299.5672
299.6329
299.5994
299.5925
299.6506
299.6063
299.6951
299.6246
299.5581
299.7009
299.5280
299.6352
299.5596
299.5094
299.5999
299.4739
299.6387
299.4910
299.5643
299.6219
299.5692
299.6558
299.5715
299.5692
299.5883
299.4927
299.5743
299.4929
299.4259
299.5907
299.4722
299.6046
299.5612
299.5632
299.6280
299.4937
299.6623
299.4537
299.4969
299.5301
299.4409
299.5315
299.4706
299.4934
299.5222
299.4954
299.5957
299.5070
299.4735
299.5944
299.4364
299.5379
299.4492
299.4222
299.4806
299.3583
299.5453
299.3692
299.4702
299.5130
299.4659
299.5664
299.4564
299.4946
299.4693
299.3952
299.4778
299.3881
299.3520
299.4804
299.3843
299.5139
299.4637
299.4908
299.5113
299.3986
299.5779
299.3462
299.4275
299.4332
299.3359
299.4479
299.3614
299.4179
299.3966
299.3907
299.4868
299.3965
299.3977
299.4620
299.3434
299.4437
299.3374
299.3472
299.3593
299.2397
299.4362
299.2566
299.3771
299.3815
299.3345
299.4545
299.3200
299.3926
299.2986
299.2530
299.3356
299.2331
299.2337
299.2897
299.2201
299.3346
299.2736
299.3337
299.3013
299.2002
299.3822
299.1584
299.2568
299.2239
299.1366
299.2574
299.1446
299.2570
299.1703
299.2018
299.2818
299.2121
299.2621
299.2504
299.1856
299.2610
299.1578
299.2066
299.1679
299.719
299.2744
299.1201
299.2587
299.2440
299.2093
299.3191
299.1914
299.3189
299.1577
299.1654
299.2278
299.1380
299.2049
299.2031
299.1806
299.2649
299.2272
299.3130
299.2463
299.1797
299.3362
299.1526
299.2663
299.1994
299.1389
299.2399
299.1239
299.2836
299.1433
299.2218
299.2805
299.2244
299.3165
299.2405
299.2321
299.2614
299.1734
299.2510
299.1764
299.1161
299.2884
299.1719
299.3152
299.2850
299.2855
299.3530
299.2346
299.4017
299.1966
299.2510
299.2862
299.1984
299.3046
299.2503
299.2774
299.3062
299.2931
299.3999
299.3167
299.2966
299.4145
299.2729
299.3876
299.3030
299.2835
299.3356
299.2183
299.4157
299.2484
299.3511
299.3952
299.3471
299.4617
299.3579
299.4013
299.3678
299.3116
299.4040
299.3119
299.2913
299.4177
299.3287
299.4642
299.4203
299.4548
299.4748
299.3635
299.5532
299.3277
299.4179
299.4218
299.3287
299.4533
299.3648
299.4363
299.4135
299.4177
299.5200
299.4402
299.4552
299.5182
299.4070
299.5130
299.4216
299.4461
299.4594
299.3461
299.5499
299.3782
299.5117
299.5353
299.4893
299.6166
299.4904
299.5726
299.4842
299.4479
299.5357
299.4381
299.4566
299.5320
299.4578
299.5787
299.5329
299.5942
299.5746
299.4744
299.6618
299.4400
299.5498
299.5301
299.4415
299.5639
299.4581
299.5680
299.4958
299.5178
299.6092
299.5310
299.5683
299.5851
299.5087
299.5950
299.4942
299.5424
299.5221
299.4183
299.6246
299.4620
299.6034
299.6044
299.5680
299.6876
299.5606
299.6814
299.5523
299.5351
299.6074
299.5183
299.5585
299.5902
299.5450
299.6540
299.6117
299.6895
299.6498
299.5702
299.7476
299.5423
299.6562
299.6182
299.5453
299.6734
299.5650
299.6947
299.5951
299.6445
299.7191
299.6574
299.7213
299.6995
299.6440
299.7174
299.6219
299.6819
299.6426
299.5564
299.7546
299.6068
299.7521
299.7441
299.7204
299.8285
299.6969
299.8315
299.6752
299.6840
299.7503
299.6604
299.7221
299.7294
299.7045
299.7962
299.7582
299.8439
299.7863
299.7187
299.8914
299.6965
299.8123
299.7656
299.6950
299.8158
299.7064
299.8516
299.7376
299.7993
299.8749
299.8212
299.8924
299.8569
299.8205
299.8811
299.7818
299.8481
299.7953
299.7082
299.9001
299.7604
299.9038
299.8825
299.8634
299.9667
299.8400
299.9790
299.8038
299.8195
299.8828
299.7942
299.8623
299.8586
299.8368
299.9270
299.8948
299.9800
299.9156
299.8550
300.149
299.8288
299.9489
299.8908
299.8256
299.9340
299.8290
299.9805
299.8540
299.9230
299.9961
299.9420
300.235
299.9714
299.9350
299.9903
299.8984
299.9712
299.9137
299.8275
300.149
299.8765
300.170
299.9863
299.9638
300.578
299.9295
300.699
299.8895
299.9100
299.9589
299.8734
299.9402
299.9273
299.9067
299.9850
299.9474
300.342
299.9694
299.9043
300.640
299.8795
299.9931
299.9377
299.8719
299.9815
299.8694
300.176
299.8873
299.9510
300.194
299.9644
300.454
299.9926
299.9592
300.85
299.9136
299.9814
299.9184
299.8326
300.196
299.8812
300.234
299.9935
299.9725
300.665
299.9395
300.827
299.9040
299.9264
299.9739
299.8877
299.9587
299.9451
299.9282
300.79
299.9784
300.712
300.61
299.9382
300.972
299.9112
300.254
299.9703
299.9039
300.114
299.8913
300.467
299.9153
299.9801
300.466
299.9929
300.735
300.218
299.9936
300.433
299.9480
300.181
299.9542
299.8696
300.523
299.9142
300.553
300.260
300.54
300.1051
299.9765
300.1217
299.9451
299.9715
300.283
299.9389
300.153
300.60
299.9931
300.763
300.413
300.1383
300.745
300.79
300.1724
299.9912
300.999
300.461
299.9857
300.914
299.9737
300.1317
300.39
300.581
300.1300
300.738
300.1391
300.839
300.520
300.1015
300.5
300.736
300.167
299.9272
300.1155
299.9759
300.1101
300.818
300.575
300.1538
300.245
300.1669
299.9873
300.13
300.607
299.9693
300.356
300.277
300.138
300.993
300.566
300.1477
300.817
300.119
300.1744
299.9873
300.966
300.369
299.9730
300.857
299.9682
300.1094
299.9833
300.392
300.1098
300.585
300.1219
300.758
300.395
300.897
299.9924
300.612
300.52
299.9137
300.1039
299.9617
300.1015
300.780
300.533
300.1543
300.234
300.1655
299.9911
300.21
300.634
299.9783
300.415
300.335
300.98
300.1036
300.665
300.1532
300.946
300.209
300.1899
300.22
300.1145
300.566
299.9887
300.1093
299.9928
300.1357
300.155
300.680
300.1407
300.856
300.1565
300.1128
300.704
300.1319
300.348
300.1074
300.525
299.9674
300.1627
300.184
300.1650
300.1425
300.1161
300.2294
300.1016
300.2396
300.788
300.873
300.1551
300.634
300.1163
300.1253
300.953
300.1892
300.1485
300.2410
300.1834
300.1039
300.2740
300.787
300.1900
300.1412
300.638
300.1802
300.648
300.2006
300.901
300.1390
300.2101
300.1452
300.2044
300.1820
300.1293
300.1971
300.948
300.1563
300.1200
300.200
300.2172
300.691
300.2114
300.1961
300.1614
300.2702
300.1351
300.2611
300.1113
300.1018
300.1671
300.733
300.1197
300.1372
300.968
300.2000
300.1548
300.2366
300.1847
300.987
300.2725
300.623
300.1746
300.1330
300.575
300.1781
300.638
300.1933
300.971
300.1327
300.2152
300.1476
300.2005
300.1908
300.1257
300.2003
300.906
300.1472
300.1171
300.118
300.2110
300.533
300.1888
300.1766
300.1426
300.2552
300.1174
300.2336
300.978
300.814
300.1504
300.531
300.872
300.1141
300.688
300.1748
300.1213
300.2012
300.1662
300.711
300.2482
300.372
300.1461
300.1149
300.343
300.1629
300.505
300.1689
300.827
300.1179
300.2020
300.1296
300.1757
300.1759
300.1035
300.1897
300.846
300.1307
300.1059
299.9959
300.1977
300.346
300.1712
300.1613
300.1242
300.2489
300.1119
300.2144
300.867
300.629
300.1375
300.438
300.765
300.1164
300.625
300.1762
300.1245
300.1907
300.1619
300.692
300.2519
300.348
300.1433
300.1091
300.187
300.1483
300.391
300.1473
300.749
300.1014
300.1884
300.1181
300.1559
300.1624
300.777
300.1675
300.608
300.1010
300.836
299.9746
300.1789
300.108
300.1361
300.1293
300.851
300.2051
300.699
300.1674
300.540
300.227
300.1011
300.94
300.304
300.782
300.190
300.1326
300.803
300.1408
300.1090
300.85
300.1913
299.9716
300.741
300.443
299.9510
300.799
299.9704
300.725
300.6
300.163
300.1036
300.301
300.665
300.780
299.9899
300.753
299.9600
299.9934
299.9778
299.8589
300.593
299.8886
300.189
300.135
299.9663
300.792
299.9396
300.445
299.9229
299.8824
299.9569
299.8609
299.8807
299.9322
299.8710
299.9788
299.9240
299.9971
299.9623
299.8606
300.404
299.8204
299.9230
299.8934
299.8036
299.9262
299.8072
299.9161
299.8384
299.8581
299.9442
299.8702
299.9048
299.9137
299.8366
299.9179
299.8071
299.8514
299.8259
299.7123
299.9166
299.7490
299.8809
299.8724
299.8349
299.9465
299.8074
299.9190
299.7908
299.7629
299.8402
299.7464
299.7731
299.8141
299.7690
299.8767
299.8254
299.9003
299.8649
299.7773
299.9562
299.7387
299.8464
299.8147
299.7385
299.8561
299.7374
299.8598
299.7712
299.8031
299.8844
299.8154
299.8586
299.8509
299.7859
299.8630
299.7580
299.8105
299.7754
299.6702
299.8695
299.7140
299.8501
299.8352
299.7998
299.9159
299.7832
299.9011
299.7585
299.7473
299.8104
299.7121
299.7560
299.7729
299.7319
299.8318
299.7874
299.8663
299.8153
299.7362
299.9103
299.7089
299.8170
299.7655
299.6806
299.8018
299.6835
299.8093
299.7040
299.7488
299.8195
299.7542
299.8171
299.7788
299.7287
299.7929
299.6870
299.7461
299.6937
299.5964
299.7838
299.6309
299.7658
299.7403
299.7137
299.8157
299.6822
299.8135
299.6456
299.6508
299.7106
299.6206
299.6758
299.6695
299.6407
299.7262
299.6834
299.7728
299.7096
299.6374
299.7985
299.6125
299.7235
299.6547
299.5826
299.6844
299.5671
299.7194
299.5905
299.6490
299.7148
299.6586
299.7301
299.6698
299.6495
299.6943
299.6031
299.6755
299.6120
299.5305
299.7161
299.5901
299.7306
299.6957
299.6837
299.7760
299.6495
299.8093
299.6238
299.6546
299.7068
299.6215
299.7024
299.6729
299.6720
299.7422
299.7125
299.8108
299.7372
299.6808
299.8240
299.6567
299.7734
299.6947
299.6481
299.7482
299.6278
299.7966
299.6550
299.7312
299.7889
299.7421
299.8315
299.7530
299.7493
299.7720
299.6834
299.7625
299.6875
299.6253
299.7956
299.6820
299.8258
299.7962
299.7983
299.8786
299.7569
299.9299
299.7263
299.7738
299.8206
299.7363
299.8280
299.7836
299.8038
299.8584
299.8246
299.9276
299.8512
299.8066
299.9466
299.7897
299.9049
299.8280
299.7896
299.8715
299.7550
299.9338
299.7835
299.8710
299.9235
299.8729
299.9705
299.8865
299.8994
299.9110
299.8232
299.9078
299.8330
299.7777
299.9424
299.8296
299.9697
299.9321
299.9395
300.77
299.8799
300.448
299.8389
299.8885
299.9275
299.8412
299.9369
299.8868
299.9098
299.9521
299.9279
300.343
299.9576
299.9201
300.552
299.8984
300.151
299.9384
299.9102
299.9930
299.8768
300.563
299.9014
299.9953
300.555
300.106
300.1129
300.296
300.414
300.494
299.9720
300.603
299.9802
299.9265
300.939
299.9824
300.1228
300.847
300.861
300.1553
300.374
300.2035
299.9943
300.441
300.893
299.9961
300.870
300.408
300.613
300.1075
300.850
300.1902
300.1090
300.670
300.2070
300.497
300.1668
300.916
300.527
300.1387
300.248
300.2003
300.466
300.1336
300.2005
300.1534
300.2421
300.1643
300.1710
300.1951
300.1093
300.1945
300.1209
300.498
300.2238
300.1073
300.2407
300.2043
300.1981
300.2778
300.1513
300.3112
300.1141
300.1547
300.2023
300.1205
300.2085
300.1689
300.1724
300.2361
300.2044
300.2989
300.2218
300.1680
300.3109
300.1484
300.2697
300.1993
300.1478
300.2505
300.1327
300.2918
300.1541
300.2236
300.2848
300.2368
300.3193
300.2545
300.2338
300.2709
300.1831
300.2609
300.1963
300.1121
300.2911
300.1572
300.2930
300.2612
300.2428
300.3336
300.2047
300.3523
300.1697
300.1977
300.2503
300.1630
300.2395
300.2239
300.2074
300.2878
300.2500
300.3415
300.2816
300.2151
300.3770
300.1851
300.3081
300.2524
300.1795
300.2924
300.1803
300.3268
300.2036
300.2671
300.3352
300.2784
300.3515
300.3125
300.2664
300.3247
300.2276
300.2957
300.2433
300.1545
300.3410
300.1971
300.3401
300.3164
300.2844
300.3933
300.2626
300.3915
300.2327
300.2465
300.3102
300.2166
300.2798
300.2929
300.2575
300.3523
300.3137
300.4010
300.3525
300.2780
300.4516
300.2482
300.3687
300.3224
300.2437
300.3633
300.2554
300.3833
300.2814
300.3306
300.4088
300.3370
300.4000
300.3858
300.3242
300.3971
300.2922
300.3425
300.3154
300.2175
300.4184
300.2586
300.3975
300.3844
300.3413
300.4579
300.3230
300.4346
300.2958
300.2836
300.3618
300.2654
300.2984
300.3336
300.2846
300.3977
300.3533
300.4210
300.3881
300.2963
300.4726
300.2483
300.3540
300.3260
300.2396
300.3664
300.2508
300.3542
300.2761
300.3015
300.3893
300.3133
300.3464
300.3551
300.2692
300.3620
300.2586
300.2956
300.2783
300.1694
300.3717
300.1993
300.3315
300.3319
300.2855
300.4026
300.2704
300.3637
300.2594
300.2285
300.3102
300.2082
300.2202
300.2963
300.2275
300.3516
300.3032
300.3605
300.3437
300.2433
300.4311
300.2031
300.3053
300.2894
300.1926
300.3208
300.2185
300.3080
300.2564
300.2726
300.3644
300.2737
300.2948
300.3435
300.2381
300.3431
300.2398
300.2658
300.2718
300.1586
300.3629
300.1902
300.3224
300.3378
300.2948
300.4159
300.2883
300.3646
300.2884
300.2346
300.3235
300.2247
300.2165
300.3142
300.2331
300.3562
300.3073
300.3523
300.3565
300.2419
300.4286
300.1958
300.2875
300.2883
300.1963
300.3181
300.2263
300.2978
300.2726
300.2680
300.3652
300.2757
300.2699
300.3283
300.1940
300.2799
300.1627
300.1478
300.1469
299.9950
300.1625
299.9506
300.342
300.137
299.9130
299.9740
299.8001
299.8101
299.6740
299.5495
299.5576
299.3776
299.2895
299.2910
299.1302
299.1565
299.60
298.9621
298.8301
298.6207
298.6870
298.3493
298.3354
298.1742
297.9668
297.9472
297.6963
297.6947
297.4398
297.3471
297.2586
297.491
296.9877
296.7462
296.5963
296.4196
296.1695
296.867
295.8277
295.6276
295.5316
295.2822
295.2135
294.9760
294.8595
294.6220
294.3447
294.3061
293.9360
293.8465
293.5573
293.3309
293.1574
292.8176
292.8016
292.4251
292.3387
292.973
291.8583
291.7107
291.3492
291.2930
290.8518
290.7006
290.4533
290.1361
290.4
289.6397
289.5665
289.1795
289.374
288.8101
288.5220
288.3802
288.14
287.8974
287.4487
287.2630
287.57
286.6565
286.5070
286.1300
286.283
285.6119
285.4572
285.1989
284.8974
284.7088
284.3140
284.2057
283.7192
283.5457
283.2293
282.9101
282.6755
282.2759
282.1894
281.7735
281.6242
281.3085
281.725
280.7535
280.4087
280.2349
279.8373
279.6306
279.2504
279.360
278.6666
278.3934
278.1259
277.8407
277.5547
277.2706
277.540
276.7113
276.5215
276.1113
275.9452
275.4692
275.2521
274.9469
274.5975
274.3492
273.9276
273.8137
273.4050
273.2190
272.8808
272.6651
272.3057
272.374
271.7055
271.4308
271.473
270.7429
270.4761
270.812
269.8761
269.4473
269.3242
268.8890
268.7059
268.3643
268.1308
267.7684
267.4883
267.1605
266.8937
266.4895
266.1974
265.9136
265.5277
265.2903
264.8576
264.7139
264.3088
264.984
263.7563
263.5278
263.1600
262.9424
262.5275
262.3482
261.8456
261.6333
261.2538
260.9721
260.5998
260.2819
259.9906
259.7304
259.3308
259.986
258.8120
258.5093
258.1917
257.8271
257.5852
257.2427
256.8801
256.5500
256.2687
255.8841
255.6128
255.1836
255.81
254.6483
254.3525
254.489
253.7970
253.4513
253.1864
252.7747
252.5766
252.1903
251.8714
251.5106
251.2397
250.8461
250.5758
250.1471
249.9597
249.6087
249.2908
249.56
248.7444
248.4170
248.1044
247.7404
247.4793
247.1765
246.7532
246.4801
246.1516
245.8284
245.4689
245.1537
244.8273
244.6028
244.1690
243.9600
243.6237
243.3725
243.17
242.7554
242.3277
242.1575
241.6940
241.4240
241.316
240.7677
240.3642
240.901
239.6753
239.4723
239.1632
238.7809
238.5487
238.2512
237.9878
237.6290
237.3729
236.9648
236.7824
236.3069
236.402
235.6480
235.3836
234.9848
234.6923
234.2960
234.560
233.7832
233.3712
233.1550
232.8257
232.5684
232.1897
231.9334
231.4997
231.3034
230.9299
230.5471
230.2511
229.9275
229.6165
229.2332
228.9584
228.5398
228.3582
227.9472
227.6438
227.3488
227.916
226.7990
226.4476
226.1754
225.7653
225.5764
225.1272
224.8110
224.4620
224.1780
223.8401
223.4697
223.1772
222.7719
222.5902
222.1886
221.8796
221.5932
221.3217
221.439
220.6844
220.4228
219.9942
219.8015
219.4258
219.298
218.7556
218.4016
218.1086
217.6911
217.4186
216.9923
216.7838
216.5062
216.945
215.8554
215.5122
215.2641
214.9357
214.6168
214.3189
213.9574
213.7572
213.3066
212.9719
212.6480
212.3374
212.257
211.6139
211.3344
210.9079
210.7096
210.4271
210.214
209.7716
209.4337
209.1905
208.8889
208.5583
208.2835
207.8743
207.6696
207.3027
206.8964
206.6396
206.2611
205.9835
205.5927
205.2750
204.9509
204.5830
204.3759
203.9893
203.6448
203.4073
203.907
202.8265
202.4839
202.1821
201.8909
201.5201
201.3085
200.9079
200.5213
200.2564
199.8802
199.6016
199.2137
198.8862
198.5727
198.1709
197.9723
197.6342
197.2541
197.19
196.6718
196.4386
196.1405
195.7942
195.5088
195.999
194.8860
194.6300
194.1767
193.8596
193.5178
193.2183
192.9116
192.5012
192.2001
191.8614
191.5126
191.3007
190.9476
190.5845
190.3375
190.92
189.7728
189.4778
189.1208
188.8332
188.4697
188.2145
187.9861
187.5501
187.1789
186.9012
186.5294
186.2559
185.8920
185.5287
185.2122
184.7973
184.5760
184.3293
183.9132
183.5761
183.3208
183.48
182.7559
182.4459
182.1024
181.7981
181.4260
181.1707
180.9397
180.5185
180.1317
179.8567
179.4825
179.2183
178.8772
178.4669
178.1612
177.8172
177.4721
177.2599
176.9394
176.5586
176.2564
175.9617
175.6978
175.4300
175.1124
174.7971
174.4975
174.1136
173.8878
173.6458
173.2272
172.8397
172.5591
172.1892
171.9267
171.6051
171.2035
170.8901
170.5614
170.1471
169.9519
169.6943
169.2912
168.9482
168.6918
168.3734
168.1505
167.8655
167.5189
167.2183
166.9215
166.5327
166.3235
166.850
165.6771
165.2948
165.58
164.6467
164.3596
164.525
163.6819
163.3328
162.9999
162.6330
162.3448
162.1161
161.8040
161.4164
161.865
160.8278
160.5261
160.3002
160.89
159.6590
159.3662
159.631
158.6856
158.4632
158.2203
157.8508
157.4606
157.1255
156.8113
156.4916
156.2311
155.8851
155.4854
155.1706
154.8297
154.4386
154.2258
153.9791
153.6448
153.2789
152.9516
152.6901
152.3943
152.1770
151.8874
151.5588
151.2547
150.9372
150.6175
150.3145
150.1003
149.8290
149.4117
149.429
148.7428
148.3942
148.1068
147.8376
147.4896
147.995
146.7881
146.4509
146.713
145.8277
145.5909
145.2929
144.9055
144.5715
144.3037
144.55
143.7673
143.5281
143.2354
142.8930
142.6053
142.2874
141.9574
141.6709
141.4537
141.1875
140.7833
140.4223
140.929
139.7822
139.4662
139.2148
138.8842
138.5175
138.1477
137.8187
137.4882
137.1135
136.9071
136.6603
136.3660
135.9819
135.6453
135.3506
135.705
134.8074
134.5917
134.3072
133.9986
133.6702
133.3680
133.766
132.7312
132.5003
132.2733
132.19
131.6002
131.2361
130.8831
130.5875
130.2563
130.14
129.7204
129.3795
128.9998
128.6778
128.3190
127.9894
127.6297
127.4345
127.1885
126.8969
126.5186
126.1869
125.8585
125.5963
125.3159
125.1018
124.8657
124.5715
124.2463
123.9320
123.6067
123.3160
122.9799
122.7454
122.5342
122.2734
121.9033
121.5248
121.1540
120.8475
120.5193
120.2159
119.9651
119.6653
119.3185
118.9392
118.6052
118.2451
117.9084
117.5509
117.3021
117.977
116.8276
116.4975
116.1311
115.7961
115.4675
115.1973
114.9108
114.6898
114.4672
114.1802
113.8793
113.5479
113.2517
112.9117
112.6231
112.2880
112.678
111.8525
111.5892
111.2463
110.8621
110.5019
110.1402
109.8402
109.5113
109.2416
108.9918
108.6869
108.3426
107.9752
107.6110
107.2664
106.8991
106.5705
106.2340
106.302
105.8060
105.5329
105.2098
104.8507
104.5206
104.1685
103.8916
103.6084
103.3580
103.1487
102.9185
102.6292
102.3299
102.10
101.6949
101.3589
101.538
100.7608
100.4625
100.2677
100.419
99.7728
99.4428
99.568
98.6969
98.3135
97.9879
97.6750
97.3617
97.1050
96.8537
96.5550
96.2141
95.8590
95.4940
95.1594
94.7907
94.4435
94.1261
93.8077
93.5879
93.3777
93.1048
92.8179
92.4616
92.1177
91.7840
91.4317
91.1480
90.8785
90.6187
90.4062
90.2006
89.9544
89.6663
89.3739
89.532
88.7343
88.4183
88.725
87.7772
87.4822
87.2047
87.79
86.7951
86.5303
86.2430
85.8814
85.5163
85.1587
84.7824
84.4396
84.1341
83.8219
83.5420
83.2910
83.367
82.7420
82.3992
82.483
81.6876
81.3224
80.9759
80.5948
80.2329
79.9150
79.6059
79.3351
79.1334
78.9185
78.6481
78.3632
78.371
77.6836
77.3478
77.76
76.6506
76.3441
76.708
75.8047
75.5672
75.3554
75.1475
74.9152
74.6358
74.3384
74.339
73.7155
73.3905
73.851
72.7441
72.4156
72.1340
71.8625
71.5903
71.3705
71.1757
70.9428
70.6682
70.3768
70.390
69.6676
69.3090
68.9492
68.5716
68.2021
67.8793
67.5726
67.2751
67.40
66.7612
66.5215
66.2721
65.9915
65.6748
65.3520
65.203
64.6866
64.3485
64.202
63.6844
63.3403
63.252
62.7616
62.5152
62.2867
62.1052
61.9606
61.8099
61.6182
61.4070
61.1873
60.9469
60.6884
60.4496
60.2166
59.9806
59.7381
59.5259
59.3565
59.2100
59.779
58.9723
58.8965
58.8288
58.7602
58.6696
58.5464
58.3963
58.2441
58.854
57.9252
57.7570
57.5931
57.4303
57.2540
57.976
56.9854
56.8993
56.8255
56.7682
56.7492
56.7430
56.7193
56.6620
56.5742
56.4730
56.3463
56.1977
56.492
55.9060
55.7591
55.6060
55.4547
55.3390
55.2492
55.1753
55.1185
55.775
55.613
55.476
55.275
54.9847
54.9080
54.8098
54.7051
54.5989
54.4880
54.3747
54.2606
54.1560
54.333
53.9171
53.8318
53.7831
53.7589
53.7459
53.7671
53.8224
53.8818
53.9216
53.9264
53.9106
53.8796
53.8293
53.7582
53.6950
53.6374
53.5769
53.5129
53.4412
53.4045
53.3989
53.4150
53.4488
53.4993
53.5815
53.6615
53.7412
53.8070
53.8415
53.8444
53.8357
53.8232
53.8034
53.7783
53.7424
53.7125
53.6740
53.6216
53.5937
53.6014
53.6309
53.6701
53.7188
53.8026
53.8961
53.9752
54.178
54.258
54.174
53.9835
53.9231
53.8590
53.8025
53.7396
53.6707
53.5916
53.5424
53.5266
53.5288
53.5475
53.5762
53.6361
53.6996
53.7574
53.8052
53.8184
53.7999
53.7637
53.7142
53.6615
53.5995
53.5373
53.4765
53.4120
53.3357
53.2757
53.2506
53.2583
53.2811
53.3199
53.4018
53.5058
53.6078
53.6756
53.7165
53.7384
53.7439
53.7241
53.6974
53.6835
53.6656
53.6438
53.6054
53.5858
53.5985
53.6367
53.6956
53.7708
53.8712
53.9841
54.959
54.1972
54.2692
54.3074
54.3252
54.3318
54.3321
54.3272
54.3091
54.2958
54.2841
54.2546
54.2375
54.2590
54.3116
54.3754
54.4451
54.5523
54.6737
54.7799
54.8536
54.8889
54.9063
54.8950
54.8527
54.8038
54.7599
54.7069
54.6501
54.5841
54.5450
54.5385
54.5511
54.5755
54.6150
54.6813
54.7494
54.8123
54.8599
54.8702
54.8514
54.8219
54.7821
54.7365
54.6875
54.6376
54.5976
54.5363
54.4749
54.4399
54.4439
54.4688
54.5046
54.5685
54.6667
54.7747
54.8577
54.9003
54.9196
54.9270
54.9076
54.8766
54.8514
54.8315
54.8087
54.7745
54.7509
54.7652
54.8097
54.8667
54.9427
55.449
55.1645
55.2766
55.3823
55.4603
55.4968
55.5160
55.5251
55.5238
55.5214
55.5061
55.4973
55.4776
55.4433
55.4345
55.4624
55.5097
55.5632
55.6347
55.7408
55.8516
55.9435
55.9933
56.158
56.202
55.9909
55.9450
55.9035
55.8625
55.8121
55.7511
55.6993
55.6879
55.6985
55.7152
55.7478
55.8073
55.8731
55.9348
55.9810
55.9923
55.9748
55.9375
55.8926
55.8419
55.7884
55.7280
55.6782
55.6149
55.5425
55.5010
55.4990
55.5183
55.5514
55.6175
55.7204
55.8278
55.9108
55.9554
55.9804
55.9893
55.9722
55.9398
55.9182
55.8908
55.8650
55.8228
55.8004
55.8179
55.8568
55.9130
55.9843
56.859
56.1951
56.2994
56.3918
56.4448
56.4671
56.4804
56.4871
56.4816
56.4699
56.4535
56.4445
56.4120
56.3895
56.3997
56.4411
56.4906
56.5485
56.6439
56.7536
56.8514
56.9056
56.9298
56.9342
56.9053
56.8529
56.8000
56.7480
56.6923
56.6178
56.5564
56.5311
56.5316
56.5452
56.5725
56.6219
56.6890
56.7509
56.8012
56.8181
56.7979
56.7619
56.7177
56.6710
56.6156
56.5569
56.5101
56.4438
56.3739
56.3388
56.3393
56.3552
56.3840
56.4513
56.5512
56.6465
56.7086
56.7412
56.7534
56.7513
56.7187
56.6870
56.6678
56.6494
56.6192
56.5871
56.5890
56.6252
56.6710
56.7355
56.8228
56.9347
57.413
57.1404
57.2112
57.2418
57.2514
57.2530
57.2463
57.2291
57.2048
57.1879
57.1556
57.1193
57.1094
57.1392
57.1860
57.2354
57.3170
57.4279
57.5315
57.5988
57.6317
57.6429
57.6293
57.5780
57.5277
57.4788
57.4265
57.3602
57.2969
57.2659
57.2649
57.2739
57.2956
57.3406
57.3973
57.4539
57.4984
57.5095
57.4872
57.4456
57.3993
57.3467
57.2908
57.2375
57.1871
57.1181
57.532
57.196
57.257
57.497
57.862
57.1650
57.2711
57.3706
57.4361
57.4651
57.4707
57.4571
57.4186
57.3820
57.3547
57.3235
57.2829
57.2477
57.2565
57.2860
57.3364
57.4027
57.4952
57.6039
57.7123
57.8096
57.8657
57.8903
57.9026
57.9035
57.8926
57.8750
57.8589
57.8448
57.8066
57.7834
57.7975
57.8356
57.8796
57.9374
58.341
58.1412
58.2257
58.2699
58.2871
58.2821
58.2385
58.1794
58.1288
58.739
58.115
57.9344
57.8888
57.8785
57.8811
57.8939
57.9305
57.9876
58.463
58.986
58.1211
58.1084
58.727
58.257
57.9738
57.9134
57.8483
57.7967
57.7293
57.6526
57.6064
57.5967
57.6092
57.6313
57.6945
57.7922
57.8914
57.9539
57.9835
57.9951
57.9851
57.9482
57.9152
57.8938
57.8681
57.8293
57.7969
57.8042
57.8427
57.8901
57.9546
58.492
58.1547
58.2552
58.3413
58.3902
58.3985
58.3998
58.3886
58.3693
58.3459
58.3212
58.2996
58.2577
58.2350
58.2544
58.2988
58.3427
58.4112
58.5153
58.6246
58.7043
58.7399
58.7515
58.7371
58.6867
58.6242
58.5694
58.5069
58.4361
58.3632
58.3239
58.3156
58.3199
58.3387
58.3795
58.4366
58.4913
58.5314
58.5411
58.5139
58.4743
58.4234
58.3651
58.3049
58.2452
58.1920
58.1190
58.535
58.256
58.295
58.499
58.837
58.1677
58.2685
58.3504
58.3916
58.4068
58.4082
58.3826
58.3349
58.2979
58.2626
58.2260
58.1787
58.1611
58.1839
58.2253
58.2808
58.3572
58.4599
58.5611
58.6585
58.7291
58.7570
58.7660
58.7650
58.7556
58.7351
58.7090
58.6932
58.6536
58.6148
58.6105
58.6380
58.6757
58.7187
58.8033
58.9085
58.9961
59.416
59.621
59.619
59.253
58.9621
58.9081
58.8551
58.7947
58.7217
58.6736
58.6601
58.6642
58.6797
58.7145
58.7731
58.8269
58.8738
58.8908
58.8721
58.8305
58.7782
58.7195
58.6567
58.5921
58.5380
58.4642
58.3910
58.3526
58.3514
58.3683
58.3976
58.4733
58.5724
58.6641
58.7152
58.7337
58.7389
58.7235
58.6825
58.6489
58.6202
58.5893
58.5405
58.5167
58.5316
58.5659
58.6123
58.6815
58.7777
58.8760
58.9683
59.381
59.690
59.783
59.815
59.753
59.589
59.330
59.204
58.9866
58.9481
58.9463
58.9747
59.150
59.593
59.1471
59.2539
59.3443
59.3889
59.4034
59.3956
59.3524
59.2828
59.2276
59.1638
59.957
59.132
58.9598
58.9418
58.9418
58.9547
58.9878
59.457
59.1047
59.1553
59.1765
59.1608
59.1241
59.748
59.136
58.9528
58.8860
58.8328
58.7565
58.6850
58.6490
58.6479
58.6602
58.6887
58.7662
58.8617
58.9398
58.9805
58.9916
58.9903
58.9575
58.9085
58.8763
58.8431
58.8072
58.7629
58.7513
58.7771
58.8217
58.8791
58.9597
59.627
59.1657
59.2565
59.3156
59.3378
59.3398
59.3287
59.3117
59.2851
59.2528
59.2281
59.1777
59.1422
59.1494
59.1845
59.2240
59.2808
59.3829
59.4887
59.5694
59.6064
59.6177
59.6049
59.5552
59.4922
59.4392
59.3836
59.3169
59.2463
59.2139
59.2079
59.2102
59.2254
59.2680
59.3201
59.3673
59.3995
59.3971
59.3608
59.3136
59.2554
59.1954
59.1301
59.685
59.65
58.9265
58.8674
58.8492
58.8574
58.8743
58.9258
59.174
59.1148
59.1792
59.2030
59.2084
59.1942
59.1506
59.1039
59.676
59.275
58.9793
58.9387
58.9412
58.9683
59.87
59.681
59.1594
59.2593
59.3560
59.4359
59.4791
59.4888
59.4922
59.4855
59.4707
59.4462
59.4296
59.4018
59.3590
59.3464
59.3693
59.4035
59.4412
59.5164
59.6193
59.7107
59.7617
59.7804
59.7764
59.7372
59.6710
59.6139
59.5574
59.4992
59.4196
59.3675
59.3542
59.3549
59.3662
59.3951
59.4545
59.5090
59.5550
59.5708
59.5518
59.5066
59.4491
59.3884
59.3206
59.2523
59.1930
59.1140
59.396
59.0
58.9967
59.49
59.303
59.1071
59.2012
59.2839
59.3197
59.3318
59.3332
59.3022
59.2591
59.2278
59.1979
59.1601
59.1115
59.1005
59.1222
59.1622
59.2149
59.2958
59.3940
59.4929
59.5824
59.6330
59.6440
59.6447
59.6341
59.6142
59.5862
59.5593
59.5347
59.4894
59.4621
59.4745
59.5119
59.5503
59.6138
59.7147
59.8187
59.8885
59.9160
59.9210
59.8984
59.8397
59.7752
59.7172
59.6485
59.5705
59.5034
59.4722
59.4596
59.4610
59.4814
59.5301
59.5834
59.6331
59.6612
59.6467
59.6096
59.5611
59.4999
59.4379
59.3731
59.3148
59.2441
59.1666
59.1178
59.1057
59.1128
59.1354
59.2009
59.2935
59.3826
59.4273
59.4444
59.4442
59.4168
59.3713
59.3351
59.3029
59.2612
59.2073
59.1821
59.1914
59.2244
59.2702
59.3412
59.4402
59.5422
59.6390
59.7032
59.7317
59.7381
59.7359
59.7278
59.7057
59.6774
59.6610
59.6147
59.5785
59.5788
59.6042
59.6379
59.6876
59.7806
59.8839
59.9587
59.9935
60.11
59.9869
59.9350
59.8726
59.8222
59.7616
59.6898
59.6187
59.5827
59.5742
59.5741
59.5891
59.6342
59.6893
59.7390
59.7723
59.7672
59.7314
59.6807
59.6232
59.5614
59.4919
59.4297
59.3584
59.2721
59.2156
59.1988
59.2060
59.2219
59.2841
59.3791
59.4728
59.5313
59.5535
59.5636
59.5457
59.5023
59.4679
59.4377
59.3987
59.3455
59.3114
59.3163
59.3455
59.3861
59.4491
59.5482
59.6467
59.7382
59.8050
59.8304
59.8344
59.8312
59.8186
59.7991
59.7713
59.7545
59.7105
59.6729
59.6704
59.6978
59.7334
59.7812
59.8769
59.9827
60.662
60.1036
60.1154
60.1000
60.425
59.9748
59.9136
59.8488
59.7700
59.6903
59.6505
59.6366
59.6340
59.6506
59.6967
59.7548
59.8069
59.8441
59.8417
59.8096
59.7627
59.7130
59.6494
59.5848
59.5257
59.4605
59.3785
59.3212
59.3028
59.3077
59.3212
59.3783
59.4679
59.5624
59.6162
59.6350
59.6415
59.6228
59.5778
59.5392
59.5062
59.4699
59.4179
59.3875
59.3967
59.4309
59.4774
59.5461
59.6434
59.7431
59.8395
59.9080
59.9348
59.9396
59.9368
59.9199
59.8920
59.8639
59.8427
59.7920
59.7467
59.7447
59.7663
59.7936
59.8373
59.9299
60.339
60.1153
60.1493
60.1603
60.1504
60.1014
60.390
59.9874
59.9264
59.8544
59.7792
59.7452
59.7345
59.7310
59.7430
59.7839
59.8329
59.8761
59.9043
59.8966
59.8565
59.8065
59.7478
59.6819
59.6131
59.5555
59.4867
59.4078
59.3512
59.3363
59.3432
59.3582
59.4158
59.5085
59.6009
59.6556
59.6754
59.6805
59.6613
59.6145
59.5790
59.5430
59.5028
59.4468
59.4117
59.4156
59.4399
59.4823
59.5463
59.6432
59.7414
59.8351
59.9028
59.9309
59.9373
59.9362
59.9299
59.9106
59.8864
59.8668
59.8231
59.7826
59.7820
59.8075
59.8383
59.8867
59.9789
60.826
60.1579
60.1918
60.2029
60.1849
60.1254
60.591
60.3
59.9362
59.8599
59.7881
59.7527
59.7444
59.7457
59.7635
59.8114
59.8695
59.9225
59.9591
59.9588
59.9238
59.8778
59.8201
59.7622
59.6955
59.6369
59.5650
59.4829
59.4285
59.4123
59.4147
59.4284
59.4895
59.5820
59.6748
59.7250
59.7428
59.7469
59.7280
59.6877
59.6534
59.6243
59.5919
59.5438
59.5201
59.5371
59.5742
59.6197
59.6881
59.7838
59.8776
59.9691
60.295
60.497
60.529
60.448
60.298
60.41
59.9747
59.9512
59.9004
59.8639
59.8669
59.8970
59.9330
59.9889
60.845
60.1889
60.2635
60.2925
60.3016
60.2813
60.2229
60.1574
60.983
60.313
59.9480
59.8741
59.8421
59.8306
59.8294
59.8480
59.8940
59.9468
59.9955
60.217
60.73
59.9616
59.9126
59.8551
59.7943
59.7275
59.6750
59.6058
59.5287
59.4862
59.4828
59.4928
59.5170
59.5897
59.6876
59.7713
59.8142
59.8315
59.8295
59.7974
59.7486
59.7129
59.6756
59.6363
59.5835
59.5642
59.5823
59.6176
59.6699
59.7477
59.8481
59.9492
60.394
60.925
60.1129
60.1171
60.1151
60.963
60.691
60.423
60.118
59.9630
59.9319
59.9409
59.9693
60.11
60.645
60.1609
60.2552
60.3120
60.3316
60.3297
60.2976
60.2347
60.1715
60.1137
60.474
59.9657
59.9055
59.8860
59.8833
59.8882
59.9169
59.9691
60.233
60.707
60.902
60.643
60.196
59.9629
59.8987
59.8316
59.7569
59.6942
59.6065
59.5275
59.4931
59.4894
59.4977
59.5307
59.6151
59.7180
59.7938
59.8315
59.8450
59.8456
59.8108
59.7648
59.7331
59.7007
59.6562
59.6103
59.6046
59.6270
59.6612
59.7153
59.8020
59.8997
59.9975
60.800
60.1263
60.1366
60.1429
60.1333
60.1157
60.897
60.682
60.356
59.9897
59.9748
60.11
60.360
60.791
60.1647
60.2695
60.3671
60.4191
60.4340
60.4266
60.3848
60.3141
60.2501
60.1875
60.1138
60.285
59.9794
59.9648
59.9658
59.9802
60.198
60.802
60.1364
60.1788
60.1862
60.1560
60.1110
60.535
59.9932
59.9234
59.8606
59.8010
59.7168
59.6512
59.6297
59.6320
59.6449
59.6915
59.7807
59.8750
59.9355
59.9562
59.9559
59.9346
59.8822
59.8320
59.7936
59.7562
59.7075
59.6742
59.6826
59.7182
59.7665
59.8349
59.9332
60.324
60.1261
60.1920
60.2146
60.2136
60.2069
60.1838
60.1537
60.1177
60.969
60.488
60.81
60.31
60.299
60.610
60.1083
60.1980
60.3001
60.3764
60.4096
60.4200
60.4068
60.3545
60.2915
60.2333
60.1726
60.995
60.277
59.9943
59.9850
59.9841
59.9973
60.394
60.899
60.1386
60.1652
60.1522
60.1089
60.557
59.9918
59.9261
59.8597
59.8021
59.7351
59.6569
59.6076
59.5953
59.6035
59.6262
59.6910
59.7889
59.8829
59.9362
59.9561
59.9578
59.9303
59.8843
59.8461
59.8069
59.7679
59.7117
59.6892
59.7023
59.7329
59.7794
59.8500
59.9468
60.413
60.1305
60.1885
60.2041
60.2106
60.2063
60.1906
60.1660
60.1423
60.1184
60.737
60.486
60.598
60.867
60.1211
60.1805
60.2792
60.3780
60.4379
60.4599
60.4611
60.4305
60.3643
60.2994
60.2361
60.1658
60.797
60.160
59.9903
59.9826
59.9899
60.196
60.756
60.1356
60.1825
60.2039
60.1844
60.1456
60.914
60.315
59.9597
59.8904
59.8285
59.7470
59.6707
59.6351
59.6314
59.6406
59.6705
59.7510
59.8450
59.9221
59.9530
59.9642
59.9600
59.9220
59.8822
59.8518
59.8208
59.7796
59.7352
59.7337
59.7620
59.7999
59.8592
59.9443
60.490
60.1478
60.2287
60.2667
60.2727
60.2689
60.2550
60.2328
60.2018
60.1807
60.1408
60.967
60.851
60.1071
60.1406
60.1843
60.2708
60.3773
60.4684
60.5202
60.5363
60.5290
60.4798
60.4081
60.3453
60.2749
60.2026
60.1193
60.738
60.605
60.568
60.682
60.1085
60.1610
60.2077
60.2429
60.2406
60.1987
60.1486
60.830
60.168
59.9468
59.8850
59.8206
59.7379
59.6818
59.6662
59.6728
59.6884
59.7459
59.8388
59.9309
59.9815
59.9988
59.9989
59.9722
59.9223
59.8752
59.8356
59.7948
59.7404
59.7068
59.7195
59.7506
59.7953
59.8631
59.9632
60.615
60.1525
60.2189
60.2435
60.2473
60.2451
60.2304
60.2070
60.1785
60.1563
60.1054
60.706
60.750
60.1030
60.1354
60.1835
60.2765
60.3733
60.4386
60.4623
60.4658
60.4420
60.3781
60.3122
60.2555
60.1903
60.1109
60.411
60.133
60.54
60.100
60.286
60.746
60.1271
60.1770
60.1998
60.1848
60.1381
60.825
60.182
59.9500
59.8818
59.8270
59.7465
59.6630
59.6108
59.5985
59.6002
59.6242
59.6931
59.7912
59.8742
59.9166
59.9306
59.9323
59.9032
59.8577
59.8252
59.7930
59.7524
59.7008
59.6835
59.7041
59.7401
59.7907
59.8659
59.9636
60.566
60.1417
60.1910
60.2024
60.2010
60.1944
60.1731
60.1482
60.1250
60.978
60.537
60.351
60.568
60.938
60.1298
60.2017
60.3051
60.4028
60.4580
60.4784
60.4742
60.4361
60.3651
60.3020
60.2400
60.1742
60.928
60.345
60.128
60.97
60.209
60.504
60.1067
60.1595
60.2042
60.2186
60.1931
60.1498
60.973
60.378
59.9739
59.9124
59.8595
59.7824
59.7142
59.6825
59.6794
59.6900
59.7287
59.8097
59.9020
59.9640
59.9885
59.9920
59.9792
59.9353
59.8916
59.8589
59.8242
59.7814
59.7448
59.7544
59.7876
59.8324
59.8963
59.9889
60.858
60.1815
60.2557
60.2899
60.2934
60.2858
60.2727
60.2460
60.2157
60.1946
60.1519
60.1081
60.1013
60.1273
60.1604
60.1994
60.2831
60.3857
60.4670
60.5048
60.5141
60.5035
60.4506
60.3829
60.3289
60.2686
60.1954
60.1180
60.781
60.698
60.698
60.771
60.1211
60.1711
60.2130
60.2396
60.2274
60.1794
60.1213
60.541
59.9844
59.9116
59.8500
59.7819
59.7018
59.6493
59.6363
59.6430
59.6645
59.7254
59.8205
59.9105
59.9582
59.9743
59.9736
59.9463
59.8971
59.8558
59.8198
59.7803
59.7248
59.7006
59.7172
59.7482
59.7941
59.8673
59.9663
60.613
60.1495
60.2081
60.2270
60.2288
60.2245
60.2058
60.1771
60.1513
60.1311
60.851
60.570
60.650
60.995
60.1370
60.1961
60.2930
60.3915
60.4516
60.4721
60.4690
60.4374
60.3683
60.2987
60.2369
60.1689
60.876
60.231
60.19
59.9986
60.61
60.360
60.926
60.1472
60.1960
60.2188
60.2010
60.1562
60.988
60.344
59.9655
59.8902
59.8315
59.7496
59.6714
59.6331
59.6248
59.6317
59.6567
59.7327
59.8256
59.8990
59.9269
59.9325
59.9245
59.8844
59.8345
59.7997
59.7670
59.7270
59.6826
59.6768
59.6992
59.7385
59.7946
59.8803
59.9781
60.731
60.1543
60.1948
60.2024
60.2007
60.1865
60.1641
60.1314
60.1055
60.713
60.234
60.32
60.257
60.620
60.998
60.1797
60.2848
60.3807
60.4332
60.4503
60.4478
60.4064
60.3399
60.2829
60.2201
60.1489
60.661
60.139
59.9966
59.9902
59.9974
60.311
60.823
60.1322
60.1689
60.1710
60.1396
60.920
60.366
59.9745
59.9074
59.8439
59.7824
59.7012
59.6346
59.6100
59.6113
59.6226
59.6715
59.7613
59.8586
59.9226
59.9446
59.9490
59.9348
59.8889
59.8425
59.8081
59.7685
59.7157
59.6752
59.6796
59.7038
59.7458
59.8060
59.8983
59.9967
60.916
60.1634
60.1963
60.2016
60.2018
60.1883
60.1644
60.1385
60.1196
60.748
60.312
60.233
60.454
60.757
60.1193
60.2041
60.3045
60.3821
60.4129
60.4206
60.4034
60.3483
60.2808
60.2245
60.1636
60.869
60.127
59.9779
59.9674
59.9684
59.9858
60.329
60.863
60.1366
60.1689
60.1647
60.1234
60.759
60.167
59.9535
59.8828
59.8206
59.7447
59.6637
59.6066
59.5921
59.5965
59.6115
59.6769
59.7745
59.8670
59.9181
59.9373
59.9432
59.9177
59.8708
59.8320
59.7991
59.7615
59.7076
59.6852
59.7020
59.7356
59.7832
59.8565
59.9569
60.528
60.1423
60.1997
60.2190
60.2162
60.2084
60.1895
60.1587
60.1245
60.949
60.463
60.145
60.275
60.652
60.1028
60.1683
60.2725
60.3751
60.4388
60.4682
60.4714
60.4394
60.3722
60.3020
60.2359
60.1637
60.781
60.106
59.9811
59.9722
59.9740
59.9978
60.519
60.1037
60.1517
60.1720
60.1507
60.1051
60.534
59.9933
59.9283
59.8641
59.8060
59.7286
59.6527
59.6126
59.6060
59.6137
59.6404
59.7163
59.8118
59.8850
59.9180
59.9266
59.9179
59.8803
59.8336
59.7986
59.7645
59.7193
59.6737
59.6667
59.6918
59.7298
59.7901
59.8780
59.9791
60.796
60.1655
60.2111
60.2200
60.2221
60.2115
60.1942
60.1677
60.1427
60.1031
60.491
60.297
60.453
60.743
60.1079
60.1859
60.2878
60.3774
60.4302
60.4494
60.4496
60.4120
60.3466
60.2932
60.2366
60.1719
60.881
60.404
60.222
60.154
60.220
60.533
60.1041
60.1565
60.1937
60.1983
60.1619
60.1166
60.582
59.9922
59.9224
59.8585
59.7951
59.7105
59.6395
59.6098
59.6103
59.6217
59.6691
59.7611
59.8583
59.9232
59.9500
59.9592
59.9479
59.9038
59.8633
59.8316
59.7926
59.7367
59.6986
59.7007
59.7268
59.7653
59.8195
59.9073
60.25
60.928
60.1590
60.1888
60.1949
60.1924
60.1846
60.1617
60.1342
60.1125
60.700
60.299
60.276
60.565
60.894
60.1399
60.2304
60.3321
60.4066
60.4401
60.4461
60.4245
60.3613
60.2908
60.2284
60.1589
60.800
60.11
59.9622
59.9546
59.9529
59.9711
60.214
60.781
60.1308
60.1652
60.1597
60.1220
60.717
60.122
59.9489
59.8800
59.8203
59.7495
59.6656
59.6119
59.5941
59.5991
59.6111
59.6735
59.7657
59.8551
59.8997
59.9146
59.9192
59.8889
59.8390
59.8048
59.7702
59.7359
59.6835
59.6646
59.6850
59.7206
59.7690
59.8458
59.9474
60.437
60.1347
60.1905
60.2092
60.2105
60.1999
60.1807
60.1515
60.1248
60.971
60.457
60.155
60.254
60.559
60.942
60.1580
60.2603
60.3628
60.4277
60.4522
60.4571
60.4279
60.3666
60.3070
60.2526
60.1899
60.1106
60.477
60.202
60.87
60.112
60.311
60.805
60.1333
60.1799
60.1932
60.1704
60.1226
60.701
60.83
59.9441
59.8796
59.8199
59.7399
59.6671
59.6331
59.6302
59.6400
59.6709
59.7553
59.8545
59.9328
59.9713
59.9809
59.9755
59.9358
59.8854
59.8460
59.8062
59.7607
59.7123
59.7039
59.7263
59.7648
59.8203
59.9068
60.78
60.1062
60.1890
60.2313
60.2450
60.2492
60.2417
60.2231
60.1952
60.1730
60.1352
60.890
60.721
60.930
60.1257
60.1603
60.2393
60.3435
60.4336
60.4767
60.4918
60.4819
60.4366
60.3719
60.3130
60.2495
60.1762
60.923
60.444
60.291
60.230
60.355
60.693
60.1210
60.1739
60.2127
60.2153
60.1816
60.1352
60.793
60.138
59.9427
59.8736
59.8073
59.7173
59.6464
59.6159
59.6105
59.6191
59.6653
59.7545
59.8458
59.9073
59.9307
59.9335
59.9165
59.8677
59.8266
59.7923
59.7536
59.6994
59.6604
59.6641
59.6896
59.7268
59.7882
59.8814
59.9774
60.691
60.1376
60.1615
60.1658
60.1584
60.1453
60.1218
60.941
60.740
60.291
59.9872
59.9862
60.180
60.542
60.1060
60.2011
60.3077
60.3851
60.4219
60.4370
60.4180
60.3614
60.2885
60.2253
60.1579
60.770
60.36
59.9667
59.9567
59.9558
59.9728
60.211
60.780
60.1267
60.1561
60.1467
60.1058
60.530
59.9887
59.9218
59.8498
59.7875
59.7117
59.6311
59.5824
59.5706
59.5782
59.5970
59.6624
59.7549
59.8417
59.8821
59.8905
59.8850
59.8506
59.7963
59.7529
59.7104
59.6685
59.6102
59.5868
59.6022
59.6384
59.6883
59.7631
59.8631
59.9625
60.567
60.1104
60.1264
60.1296
60.1197
60.993
60.670
60.372
60.83
59.9595
59.9256
59.9354
59.9654
59.9999
60.607
60.1616
60.2601
60.3242
60.3477
60.3536
60.3255
60.2663
60.2053
60.1501
60.889
60.72
59.9448
59.9244
59.9200
59.9246
59.9503
60.14
60.553
60.984
60.1174
60.973
60.510
59.9971
59.9288
59.8574
59.7839
59.7232
59.6403
59.5636
59.5256
59.5180
59.5265
59.5550
59.6363
59.7390
59.8190
59.8571
59.8689
59.8659
59.8322
59.7884
59.7538
59.7174
59.6701
59.6182
59.6042
59.6257
59.6561
59.7037
59.7859
59.8788
59.9730
60.543
60.1006
60.1088
60.1099
60.1002
60.839
60.571
60.334
60.60
59.9598
59.9386
59.9578
59.9898
60.230
60.975
60.1967
60.2892
60.3400
60.3577
60.3521
60.3071
60.2361
60.1703
60.1054
60.324
59.9458
59.8901
59.8676
59.8587
59.8637
59.8951
59.9523
60.41
60.523
60.632
60.376
59.9938
59.9391
59.8775
59.8085
59.7407
59.6786
59.5928
59.5223
59.4905
59.4866
59.4940
59.5296
59.6107
59.7026
59.7677
59.7916
59.7966
59.7848
59.7393
59.6940
59.6628
59.6285
59.5840
59.5419
59.5447
59.5722
59.6122
59.6722
59.7672
59.8650
59.9626
60.399
60.759
60.829
60.823
60.690
60.476
60.150
59.9924
59.9521
59.9095
59.8986
59.9254
59.9621
60.49
60.918
60.2043
60.2996
60.3436
60.3604
60.3549
60.3109
60.2436
60.1876
60.1269
60.554
59.9728
59.9275
59.9123
59.9065
59.9169
59.9530
60.42
60.505
60.874
60.887
60.486
59.9977
59.9408
59.8753
59.8069
59.7480
59.6861
59.6037
59.5482
59.5306
59.5391
59.5537
59.6089
59.7008
59.7936
59.8470
59.8691
59.8688
59.8451
59.7964
59.7507
59.7145
59.6734
59.6192
59.5821
59.5859
59.6121
59.6519
59.7131
59.8061
59.9011
59.9965
60.652
60.884
60.930
60.885
60.748
60.516
60.223
59.9992
59.9543
59.9128
59.9118
59.9385
59.9665
60.83
60.950
60.1926
60.2683
60.2997
60.3054
60.2874
60.2321
60.1659
60.1074
60.425
59.9622
59.8870
59.8543
59.8464
59.8469
59.8662
59.9179
59.9767
60.288
60.637
60.553
60.182
59.9690
59.9074
59.8412
59.7681
59.7019
59.6281
59.5429
59.4882
59.4704
59.4754
59.4919
59.5561
59.6527
59.7440
59.7961
59.8174
59.8213
59.8004
59.7545
59.7192
59.6822
59.6440
59.5892
59.5647
59.5803
59.6096
59.6585
59.7320
59.8306
59.9275
60.172
60.783
60.982
60.994
60.903
60.745
60.487
60.214
60.4
59.9528
59.9195
59.9264
59.9572
59.9918
60.531
60.1504
60.2531
60.3252
60.3534
60.3571
60.3349
60.2739
60.2104
60.1526
60.837
60.0
59.9316
59.9043
59.8970
59.8987
59.9175
59.9668
60.198
60.661
60.914
60.791
60.393
59.9870
59.9283
59.8676
59.8045
59.7512
59.6762
59.6013
59.5579
59.5486
59.5574
59.5784
59.6480
59.7432
59.8231
59.8584
59.8666
59.8664
59.8321
59.7851
59.7501
59.7143
59.6732
59.6211
59.6101
59.6350
59.6692
59.7239
59.8077
59.9060
60.60
60.953
60.1431
60.1535
60.1527
60.1428
60.1255
60.966
60.720
60.392
59.9908
59.9631
59.9771
60.63
60.364
60.1045
60.2029
60.2965
60.3520
60.3752
60.3763
60.3468
60.2872
60.2344
60.1798
60.1187
60.392
59.9852
59.9686
59.9621
59.9668
59.9950
60.468
60.960
60.1378
60.1458
60.1189
60.704
60.162
59.9518
59.8829
59.8222
59.7616
59.6804
59.6121
59.5811
59.5799
59.5882
59.6247
59.7093
59.8088
59.8809
59.9123
59.9230
59.9139
59.8747
59.8330
59.8006
59.7667
59.7211
59.6779
59.6730
59.6970
59.7301
59.7870
59.8764
59.9700
60.615
60.1355
60.1681
60.1738
60.1744
60.1665
60.1479
60.1248
60.1105
60.756
60.376
60.287
60.554
60.896
60.1295
60.2118
60.3110
60.3953
60.4301
60.4403
60.4257
60.3707
60.3001
60.2389
60.1753
60.1013
60.204
59.9777
59.9663
59.9653
59.9775
60.182
60.770
60.1299
60.1671
60.1688
60.1355
60.873
60.287
59.9641
59.8928
59.8257
59.7576
59.6698
59.6079
59.5872
59.5908
59.6031
59.6546
59.7450
59.8352
59.8870
59.9033
59.9048
59.8833
59.8350
59.7943
59.7609
59.7254
59.6725
59.6405
59.6547
59.6832
59.7243
59.7932
59.8919
59.9915
60.824
60.1437
60.1630
60.1665
60.1615
60.1454
60.1203
60.902
60.678
60.140
59.9767
59.9767
60.56
60.403
60.921
60.1848
60.2889
60.3649
60.3956
60.4047
60.3862
60.3305
60.2660
60.2078
60.1454
60.654
59.9939
59.9606
59.9486
59.9481
59.9607
60.45
60.564
60.1036
60.1281
60.1121
60.689
60.165
59.9545
59.8880
59.8181
59.7552
59.6812
59.6003
59.5554
59.5474
59.5545
59.5777
59.6480
59.7443
59.8289
59.8685
59.8799
59.8728
59.8377
59.7866
59.7495
59.7111
59.6644
59.6093
59.5876
59.6018
59.6292
59.6777
59.7493
59.8458
59.9388
60.278
60.809
60.978
60.1043
60.1005
60.840
60.599
60.329
60.78
59.9589
59.9289
59.9377
59.9700
60.52
60.700
60.1707
60.2686
60.3277
60.3490
60.3509
60.3185
60.2547
60.1914
60.1303
60.688
59.9876
59.9263
59.9062
59.8999
59.9079
59.9331
59.9841
60.383
60.852
60.1037
60.833
60.412
59.9889
59.9278
59.8604
59.7919
59.7293
59.6450
59.5691
59.5270
59.5203
59.5272
59.5543
59.6334
59.7315
59.8089
59.8439
59.8549
59.8502
59.8140
59.7705
59.7369
59.7029
59.6619
59.6148
59.6094
59.6342
59.6734
59.7290
59.8114
59.9134
60.79
60.838
60.1229
60.1290
60.1250
60.1083
60.861
60.545
60.301
59.9939
59.9433
59.9249
59.9467
59.9809
60.196
60.979
60.2034
60.2966
60.3464
60.3603
60.3530
60.3088
60.2359
60.1733
60.1099
60.401
59.9541
59.8999
59.8816
59.8750
59.8774
59.9075
59.9595
60.102
60.484
60.553
60.274
59.9826
59.9277
59.8648
59.7983
59.7341
59.6763
59.5928
59.5263
59.4969
59.4995
59.5104
59.5562
59.6406
59.7363
59.8006
59.8235
59.8306
59.8152
59.7679
59.7202
59.6832
59.6451
59.5961
59.5593
59.5644
59.5964
59.6401
59.7019
59.7966
59.8994
59.9945
60.727
60.1096
60.1171
60.1181
60.1041
60.860
60.596
60.405
59.9989
59.9562
59.9452
59.9706
60.54
60.462
60.1314
60.2329
60.3159
60.3560
60.3713
60.3643
60.3176
60.2560
60.2001
60.1390
60.698
59.9892
59.9492
59.9380
59.9375
59.9503
59.9927
60.449
60.951
60.1299
60.1234
60.816
60.339
59.9756
59.9093
59.8385
59.7734
59.7031
59.6166
59.5564
59.5388
59.5429
59.5561
59.6117
59.7050
59.8023
59.8569
59.8781
59.8862
59.8659
59.8217
59.7840
59.7479
59.7084
59.6524
59.6179
59.6238
59.6504
59.6912
59.7539
59.8474
59.9421
60.324
60.943
60.1163
60.1174
60.1095
60.937
60.725
60.434
60.256
59.9819
59.9469
59.9512
59.9812
60.170
60.723
60.1655
60.2695
60.3404
60.3713
60.3778
60.3542
60.2932
60.2228
60.1608
60.927
60.144
59.9414
59.9111
59.9015
59.9039
59.9229
59.9715
60.282
60.785
60.1062
60.968
60.570
60.35
59.9435
59.8793
59.8099
59.7504
59.6744
59.5939
59.5500
59.5397
59.5439
59.5642
59.6316
59.7268
59.8058
59.8473
59.8620
59.8585
59.8246
59.7747
59.7379
59.7040
59.6656
59.6159
59.5985
59.6181
59.6534
59.7072
59.7862
59.8848
59.9886
60.776
60.1316
60.1437
60.1425
60.1322
60.1109
60.800
60.511
60.220
59.9722
59.9407
59.9513
59.9861
60.227
60.921
60.1966
60.2981
60.3601
60.3855
60.3889
60.3555
60.2905
60.2308
60.1737
60.1083
60.272
59.9708
59.9519
59.9493
59.9556
59.9834
60.375
60.924
60.1356
60.1491
60.1254
60.795
60.222
59.9593
59.8897
59.8238
59.7673
59.6886
59.6201
59.5874
59.5873
59.6040
59.6433
59.7268
59.8284
59.9086
59.9421
59.9488
59.9451
59.9023
59.8533
59.8136
59.7740
59.7235
59.6729
59.6676
59.6930
59.7280
59.7853
59.8752
59.9768
60.765
60.1549
60.1961
60.2069
60.2096
60.1997
60.1827
60.1558
60.1368
60.1046
60.621
60.492
60.737
60.1051
60.1449
60.2254
60.3255
60.4128
60.4580
60.4729
60.4594
60.4103
60.3403
60.2793
60.2144
60.1434
60.613
60.157
60.9
60.4
60.165
60.573
60.1166
60.1730
60.2129
60.2185
60.1883
60.1428
60.858
60.216
59.9486
59.8807
59.8128
59.7264
59.6589
59.6346
59.6356
59.6509
59.7057
59.7996
59.8978
59.9597
59.9862
59.9956
59.9796
59.9328
59.8904
59.8577
59.8207
59.7655
59.7280
59.7344
59.7653
59.8086
59.8776
59.9760
60.750
60.1687
60.2323
60.2533
60.2531
60.2469
60.2292
60.2034
60.1717
60.1487
60.1000
60.632
60.683
60.987
60.1345
60.1868
60.2837
60.3863
60.4608
60.4934
60.5015
60.4803
60.4233
60.3547
60.2944
60.2301
60.1494
60.801
60.477
60.363
60.391
60.603
60.1080
60.1637
60.2087
60.2335
60.2191
60.1765
60.1251
60.633
59.9979
59.9255
59.8673
59.7924
59.7136
59.6713
59.6674
59.6797
59.7016
59.7761
59.8726
59.9542
59.9901
59.9989
59.9912
59.9507
59.8969
59.8557
59.8159
59.7704
59.7134
59.7015
59.7207
59.7563
59.8121
59.8951
59.9972
60.988
60.1861
60.2340
60.2446
60.2458
60.2344
60.2132
60.1828
60.1536
60.1205
60.680
60.442
60.603
60.947
60.1304
60.2027
60.3041
60.3981
60.4527
60.4697
60.4631
60.4236
60.3548
60.2907
60.2264
60.1600
60.777
60.227
60.77
60.19
60.111
60.451
60.1035
60.1543
60.1997
60.2068
60.1764
60.1231
60.616
59.9906
59.9180
59.8444
59.7739
59.6831
59.6077
59.5749
59.5715
59.5867
59.6324
59.7221
59.8276
59.9024
59.9322
59.9391
59.9277
59.8817
59.8268
59.7877
59.7458
59.6929
59.6478
59.6453
59.6685
59.7056
59.7635
59.8572
59.9563
60.546
60.1303
60.1605
60.1640
60.1607
60.1434
60.1187
60.851
60.635
60.199
59.9739
59.9647
59.9950
60.353
60.811
60.1711
60.2791
60.3675
60.4086
60.4187
60.4039
60.3466
60.2723
60.2064
60.1350
60.581
59.9765
59.9326
59.9192
59.9208
59.9368
59.9817
60.438
60.992
60.1414
60.1430
60.1078
60.621
60.9
59.9362
59.8658
59.8044
59.7370
59.6526
59.5949
59.5790
59.5864
59.6015
59.6569
59.7508
59.8452
59.8997
59.9192
59.9239
59.9028
59.8526
59.8109
59.7744
59.7368
59.6834
59.6525
59.6662
59.7022
59.7522
59.8239
59.9283
60.328
60.1304
60.1924
60.2159
60.2185
60.2106
60.1898
60.1589
60.1255
60.979
60.484
60.80
60.83
60.384
60.721
60.1308
60.2304
60.3344
60.4086
60.4412
60.4478
60.4256
60.3623
60.2964
60.2325
60.1655
60.825
60.103
59.9778
59.9687
59.9704
59.9915
60.403
60.969
60.1437
60.1655
60.1493
60.1010
60.443
59.9798
59.9084
59.8314
59.7708
59.6955
59.6146
59.5709
59.5649
59.5778
59.6053
59.6838
59.7876
59.8764
59.9183
59.9310
59.9267
59.8906
59.8366
59.7976
59.7560
59.7093
59.6512
59.6354
59.6530
59.6906
59.7415
59.8201
59.9226
60.230
60.1107
60.1632
60.1758
60.1787
60.1683
60.1528
60.1224
60.927
60.636
60.140
59.9878
60.59
60.408
60.758
60.1512
60.2553
60.3529
60.4106
60.4287
60.4244
60.3831
60.3132
60.2414
60.1755
60.1042
60.184
59.9566
59.9381
59.9337
59.9463
59.9787
60.368
60.979
60.1459
60.1579
60.1312
60.865
60.262
59.9568
59.8810
59.8057
59.7380
59.6481
59.5737
59.5378
59.5352
59.5438
59.5798
59.6668
59.7613
59.8345
59.8677
59.8740
59.8658
59.8231
59.7755
59.7402
59.7001
59.6547
59.6081
59.6047
59.6328
59.6722
59.7339
59.8262
59.9317
60.279
60.1082
60.1447
60.1492
60.1445
60.1313
60.1104
60.791
60.545
60.187
59.9740
59.9619
59.9873
60.254
60.660
60.1508
60.2567
60.3472
60.3944
60.4097
60.4015
60.3528
60.2831
60.2272
60.1615
60.919
60.99
59.9631
59.9500
59.9428
59.9545
59.9918
60.462
60.960
60.1341
60.1328
60.961
60.495
59.9923
59.9273
59.8605
59.7985
59.7373
59.6545
59.5963
59.5764
59.5827
59.5996
59.6524
59.7467
59.8415
59.8943
59.9119
59.9088
59.8869
59.8356
59.7894
59.7544
59.7167
59.6656
59.6337
59.6438
59.6759
59.7219
59.7871
59.8885
59.9926
60.888
60.1555
60.1838
60.1845
60.1786
60.1659
60.1414
60.1127
60.879
60.383
59.9963
59.9938
60.205
60.533
60.982
60.1875
60.2873
60.3607
60.3935
60.3987
60.3799
60.3250
60.2592
60.2016
60.1394
60.629
59.9894
59.9577
59.9527
59.9557
59.9759
60.264
60.829
60.1345
60.1620
60.1496
60.1087
60.542
59.9878
59.9203
59.8464
59.7807
59.7080
59.6249
59.5727
59.5589
59.5680
59.5883
59.6556
59.7613
59.8550
59.9080
59.9281
59.9321
59.9038
59.8569
59.8190
59.7805
59.7399
59.6814
59.6588
59.6711
59.7019
59.7485
59.8230
59.9198
60.133
60.1035
60.1589
60.1758
60.1801
60.1729
60.1564
60.1300
60.1047
60.777
60.275
60.15
60.173
60.519
60.858
60.1565
60.2614
60.3654
60.4336
60.4607
60.4645
60.4305
60.3660
60.3002
60.2362
60.1670
60.765
60.84
59.9832
59.9789
59.9844
60.144
60.700
60.1262
60.1762
60.1940
60.1758
60.1346
60.798
60.202
59.9557
59.8881
59.8319
59.7496
59.6761
59.6418
59.6356
59.6459
59.6751
59.7584
59.8560
59.9266
59.9543
59.9631
59.9538
59.9123
59.8621
59.8277
59.7900
59.7457
59.6999
59.6979
59.7248
59.7646
59.8244
59.9116
60.107
60.1065
60.1862
60.2284
60.2322
60.2282
60.2155
60.1891
60.1565
60.1297
60.862
60.328
60.151
60.358
60.670
60.1050
60.1872
60.2901
60.3829
60.4326
60.4479
60.4442
60.3974
60.3331
60.2743
60.2113
60.1422
60.600
60.180
60.49
60.4
60.101
60.462
60.1008
60.1470
60.1880
60.1874
60.1521
60.1011
60.423
59.9758
59.9048
59.8377
59.7707
59.6855
59.6215
59.5995
59.6041
59.6189
59.6712
59.7676
59.8616
59.9243
59.9457
59.9525
59.9369
59.8901
59.8443
59.8091
59.7659
59.7089
59.6737
59.6794
59.7057
59.7461
59.8090
59.9038
60.6
60.962
60.1635
60.1918
60.1971
60.1955
60.1838
60.1572
60.1280
60.1076
60.623
60.225
60.229
60.515
60.898
60.1441
60.2367
60.3407
60.4105
60.4382
60.4414
60.4183
60.3538
60.2833
60.2215
60.1542
60.763
60.16
59.9677
59.9614
59.9622
59.9829
60.352
60.936
60.1467
60.1774
60.1708
60.1290
60.772
60.132
59.9417
59.8683
59.8055
59.7296
59.6466
59.5957
59.5852
59.5906
59.6094
59.6758
59.7733
59.8584
59.9027
59.9170
59.9142
59.8844
59.8316
59.7916
59.7554
59.7139
59.6611
59.6449
59.6651
59.7041
59.7537
59.8325
59.9384
60.348
60.1251
60.1755
60.1858
60.1823
60.1665
60.1435
60.1116
60.805
60.483
59.9956
59.9665
59.9778
60.116
60.484
60.1205
60.2288
60.3335
60.4003
60.4301
60.4347
60.4036
60.3357
60.2715
60.2091
60.1425
60.592
59.9982
59.9775
59.9696
59.9738
60.23
60.564
60.1078
60.1564
60.1745
60.1511
60.1104
60.558
59.9960
59.9284
59.8651
59.8096
59.7297
59.6586
59.6280
59.6256
59.6372
59.6739
59.7618
59.8636
59.9387
59.9721
59.9813
59.9734
59.9309
59.8796
59.8422
59.8010
59.7512
59.7016
59.6921
59.7148
59.7545
59.8134
59.9057
60.61
60.1074
60.1924
60.2329
60.2466
60.2496
60.2407
60.2201
60.1887
60.1657
60.1216
60.700
60.529
60.709
60.1036
60.1378
60.2190
60.3210
60.4114
60.4562
60.4685
60.4635
60.4180
60.3505
60.2880
60.2236
60.1529
60.699
60.239
60.83
60.52
60.160
60.537
60.1101
60.1643
60.2074
60.2082
60.1744
60.1265
60.666
59.9973
59.9217
59.8518
59.7817
59.6893
59.6186
59.5933
59.5950
59.6103
59.6643
59.7595
59.8629
59.9231
59.9501
59.9583
59.9416
59.8950
59.8529
59.8174
59.7738
59.7147
59.6764
59.6799
59.7067
59.7484
59.8134
59.9055
60.38
60.1010
60.1712
60.1971
60.2002
60.1938
60.1767
60.1544
60.1215
60.1007
60.537
60.170
60.192
60.494
60.852
60.1370
60.2355
60.3447
60.4207
60.4520
60.4572
60.4380
60.3743
60.3050
60.2424
60.1708
60.878
60.82
59.9664
59.9531
59.9471
59.9625
60.99
60.630
60.1136
60.1417
60.1311
60.891
60.377
59.9785
59.9120
59.8396
59.7777
59.6977
59.6149
59.5663
59.5528
59.5555
59.5726
59.6379
59.7357
59.8187

END