=~=~=~=~=~=~=~=~=~=~=~= PuTTY log 2025.04.16 15:09:09 =~=~=~=~=~=~=~=~=~=~=~=




Speed (Hz)
60.1841
60.1372
60.1557
60.1935
60.2480
60.3227
60.4109
60.4888
60.5431
60.5597
60.5358
60.5080
60.4758
60.4375
60.3915
60.3454
60.2891
60.2118
60.1406
60.939
60.683
60.527
60.556
60.988
60.1445
60.1615
60.1538
60.1312
60.987
60.444
59.9975
59.9655
59.9257
59.8742
59.8180
59.8031
59.8004
59.8029
59.8285
59.8776
59.9414
60.46
60.558
60.699
60.694
60.689
60.612
60.582
60.418
60.382
60.19
59.9566
59.9383
59.9368
59.9465
59.9645
60.172
60.889
60.1455
60.1721
60.1791
60.1733
60.1392
60.909
60.569
60.205
59.9608
59.8985
59.8640
59.8364
59.8249
59.8140
59.8365
59.8722
59.9021
59.9265
59.9205
59.8907
59.8488
59.8012
59.7631
59.7226
59.6852
59.6398
59.5615
59.5021
59.4778
59.4683
59.4722
59.5100
59.5826
59.6639
59.7048
59.7204
59.7314
59.7267
59.6984
59.6873
59.6841
59.6735
59.6427
59.6242
59.6299
59.6569
59.6892
59.7381
59.8143
59.8914
59.9679
60.166
60.357
60.416
60.457
60.452
60.430
60.346
60.345
60.37
59.9708
59.9693
59.9892
60.98
60.415
60.1136
60.1982
60.2549
60.2826
60.2829
60.2691
60.2247
60.1747
60.1346
60.874
60.214
59.9586
59.9272
59.9054
59.8919
59.8899
59.9154
59.9459
59.9737
59.9896
59.9700
59.9283
59.8871
59.8515
59.8062
59.7621
59.7219
59.6705
59.6017
59.5511
59.5358
59.5318
59.5368
59.5794
59.6574
59.7282
59.7615
59.7738
59.7669
59.7565
59.7329
59.7178
59.7111
59.6943
59.6574
59.6428
59.6581
59.6836
59.7251
59.7854
59.8672
59.9505
60.299
60.783
60.995
60.1126
60.1217
60.1262
60.1286
60.1260
60.1227
60.887
60.640
60.742
60.907
60.1071
60.1397
60.2126
60.2917
60.3399
60.3516
60.3560
60.3440
60.2955
60.2603
60.2251
60.1803
60.1162
60.658
60.365
60.245
60.81
60.118
60.387
60.688
60.875
60.878
60.590
60.101
59.9678
59.9237
59.8759
59.8358
59.7948
59.7201
59.6500
59.6126
59.5993
59.5920
59.5955
59.6519
59.7287
59.7878
59.8106
59.8234
59.8278
59.8015
59.7771
59.7648
59.7481
59.7203
59.6797
59.6739
59.6945
59.7118
59.7501
59.8075
59.8822
59.9572
60.203
60.546
60.579
60.662
60.688
60.771
60.714
60.794
60.658
60.326
60.117
60.302
60.519
60.772
60.1370
60.2194
60.2981
60.3325
60.3406
60.3356
60.3041
60.2473
60.2103
60.1693
60.1226
60.552
60.95
59.9953
59.9859
59.9867
60.84
60.414
60.711
60.996
60.991
60.690
60.351
59.9933
59.9460
59.9004
59.8671
59.8282
59.7506
59.6828
59.6509
59.6416
59.6332
59.6583
59.7164
59.7878
59.8319
59.8474
59.8503
59.8391
59.8121
59.7826
59.7763
59.7623
59.7301
59.7026
59.7097
59.7372
59.7674
59.8128
59.8832
59.9604
60.347
60.884
60.1045
60.1105
60.1145
60.1214
60.1205
60.1128
60.1148
60.971
60.653
60.563
60.742
60.997
60.1261
60.1915
60.2755
60.3424
60.3733
60.3875
60.3857
60.3473
60.3049
60.2698
60.2339
60.1839
60.1232
60.895
60.708
60.573
60.603
60.794
60.1128
60.1387
60.1510
60.1321
60.916
60.506
60.93
59.9644
59.9292
59.9005
59.8482
59.7802
59.7291
59.7100
59.7022
59.7015
59.7472
59.8156
59.8932
59.9264
59.9372
59.9388
59.9223
59.8863
59.8727
59.8630
59.8455
59.8070
59.7814
59.7850
59.8093
59.8395
59.8863
59.9562
60.281
60.1040
60.1502
60.1680
60.1775
60.1830
60.1935
60.1893
60.1902
60.1832
60.1472
60.1216
60.1266
60.1416
60.1575
60.1928
60.2711
60.3445
60.3954
60.4073
60.4009
60.3749
60.3224
60.2804
60.2479
60.2032
60.1392
60.880
60.680
60.531
60.480
60.532
60.846
60.1103
60.1372
60.1440
60.1112
60.710
60.261
59.9808
59.9309
59.8897
59.8556
59.7876
59.7153
59.6703
59.6505
59.6411
59.6554
59.7108
59.7852
59.8402
59.8591
59.8601
59.8573
59.8278
59.8059
59.8028
59.7943
59.7809
59.7510
59.7439
59.7610
59.7940
59.8322
59.8980
59.9784
60.549
60.1144
60.1362
60.1425
60.1421
60.1460
60.1512
60.1473
60.1422
60.1235
60.859
60.731
60.960
60.1204
60.1404
60.1948
60.2837
60.3549
60.3801
60.3891
60.3839
60.3536
60.3008
60.2612
60.2214
60.1682
60.975
60.585
60.444
60.279
60.223
60.393
60.664
60.930
60.1122
60.1058
60.671
60.256
59.9858
59.9447
59.8986
59.8647
59.8250
59.7566
59.6950
59.6703
59.6648
59.6566
59.6783
59.7400
59.8112
59.8509
59.8619
59.8557
59.8374
59.8031
59.7835
59.7719
59.7523
59.7254
59.6974
59.7049
59.7278
59.7613
59.8141
59.8878
59.9656
60.446
60.1029
60.1254
60.1332
60.1372
60.1431
60.1513
60.1537
60.1549
60.1291
60.948
60.895
60.1089
60.1192
60.1426
60.2116
60.2997
60.3617
60.3849
60.3919
60.3873
60.3557
60.3127
60.2847
60.2489
60.2066
60.1430
60.1125
60.949
60.891
60.905
60.1250
60.1556
60.1822
60.1901
60.1656
60.1223
60.821
60.361
59.9886
59.9341
59.8983
59.8458
59.7720
59.7202
59.6985
59.6976
59.7058
59.7567
59.8352
59.9069
59.9361
59.9438
59.9486
59.9398
59.9065
59.8917
59.8796
59.8624
59.8291
59.8103
59.8205
59.8433
59.8788
59.9280
59.9974
60.737
60.1426
60.1771
60.1899
60.1908
60.1959
60.1984
60.1960
60.1956
60.1911
60.1510
60.1291
60.1279
60.1505
60.1675
60.2125
60.2942
60.3711
60.4089
60.4144
60.4128
60.3907
60.3441
60.2959
60.2525
60.2115
60.1424
60.864
60.616
60.473
60.450
60.513
60.787
60.1096
60.1355
60.1357
60.1066
60.629
60.237
59.9830
59.9396
59.8963
59.8629
59.8028
59.7408
59.7015
59.6902
59.6911
59.7065
59.7674
59.8434
59.9019
59.9144
59.9164
59.9127
59.8843
59.8556
59.8497
59.8384
59.8195
59.7879
59.7994
59.8173
59.8517
59.8996
59.9720
60.487
60.1299
60.1923
60.2255
60.2200
60.2191
60.2178
60.2137
60.2107
60.2088
60.1821
60.1417
60.1277
60.1419
60.1618
60.1822
60.2435
60.3220
60.3901
60.4166
60.4221
60.4095
60.3703
60.3220
60.2831
60.2449
60.1944
60.1297
60.886
60.704
60.578
60.563
60.634
60.902
60.1147
60.1294
60.1122
60.634
60.208
59.9657
59.9166
59.8688
59.8224
59.7827
59.7133
59.6621
59.6363
59.6279
59.6305
59.6652
59.7377
59.8101
59.8419
59.8537
59.8537
59.8364
59.8021
59.7812
59.7794
59.7663
59.7370
59.7117
59.7171
59.7420
59.7718
59.8206
59.8882
59.9671
60.471
60.1034
60.1266
60.1366
60.1473
60.1530
60.1491
60.1456
60.1618
60.1328
60.1039
60.1040
60.1268
60.1457
60.1738
60.2399
60.3229
60.3776
60.3942
60.3966
60.3854
60.3361
60.2901
60.2563
60.2157
60.1635
60.1023
60.763
60.651
60.592
60.618
60.870
60.1225
60.1524
60.1616
60.1436
60.983
60.622
60.202
59.9778
59.9295
59.8883
59.8213
59.7391
59.6842
59.6538
59.6358
59.6364
59.6797
59.7489
59.8162
59.8450
59.8570
59.8622
59.8547
59.8263
59.8098
59.8041
59.7886
59.7541
59.7468
59.7615
59.7838
59.8193
59.8760
59.9521
60.271
60.923
60.1302
60.1446
60.1470
60.1469
60.1455
60.1402
60.1269
60.1202
60.782
60.551
60.618
60.836
60.1043
60.1502
60.2358
60.3194
60.3615
60.3841
60.3820
60.3627
60.3198
60.2783
60.2422
60.1940
60.1174
60.630
60.382
60.181
60.90
60.112
60.407
60.665
60.899
60.882
60.612
60.200
59.9786
59.9367
59.8944
59.8622
59.8313
59.7638
59.7039
59.6686
59.6544
59.6449
59.6556
59.7203
59.7910
59.8405
59.8544
59.8554
59.8461
59.8157
59.7900
59.7770
59.7686
59.7389
59.7092
59.7110
59.7312
59.7608
59.8083
59.8805
59.9542
60.356
60.987
60.1252
60.1295
60.1345
60.1328
60.1311
60.1214
60.1241
60.988
60.576
60.420
60.531
60.712
60.892
60.1497
60.2325
60.2989
60.3306
60.3433
60.3467
60.3085
60.2611
60.2251
60.1905
60.1391
60.672
60.266
60.112
60.8
60.76
60.288
60.647
60.1069
60.1341
60.1277
60.879
60.485
60.102
59.9677
59.9235
59.8846
59.8293
59.7592
59.6935
59.6611
59.6562
59.6560
59.6870
59.7576
59.8385
59.8758
59.9007
59.9016
59.9015
59.8739
59.8537
59.8417
59.8251
59.7888
59.7543
59.7631
59.7784
59.8052
59.8549
59.9325
60.73
60.841
60.1340
60.1515
60.1581
60.1657
60.1675
60.1660
60.1577
60.1581
60.1241
60.939
60.893
60.1088
60.1299
60.1666
60.2371
60.3212
60.3818
60.4025
60.4047
60.3900
60.3406
60.2847
60.2440
60.1942
60.1331
60.642
60.219
60.60
60.8
60.36
60.295
60.633
60.931
60.1121
60.1002
60.608
60.246
59.9798
59.9356
59.8859
59.8478
59.7882
59.7144
59.6646
59.6475
59.6410
59.6426
59.6889
59.7637
59.8331
59.8575
59.8739
59.8749
59.8492
59.8101
59.7940
59.7796
59.7552
59.7140
59.7055
59.7254
59.7482
59.7867
59.8458
59.9252
60.57
60.797
60.1272
60.1369
60.1407
60.1438
60.1391
60.1320
60.1269
60.1207
60.765
60.539
60.627
60.866
60.1031
60.1511
60.2368
60.3148
60.3609
60.3777
60.3789
60.3533
60.3138
60.2767
60.2453
60.1913
60.1279
60.732
60.491
60.374
60.235
60.270
60.498
60.730
60.968
60.945
60.680
60.230
59.9818
59.9367
59.8928
59.8490
59.8170
59.7528
59.6807
59.6382
59.6215
59.6186
59.6285
59.6952
59.7749
59.8301
59.8431
59.8541
59.8558
59.8210
59.7893
59.7750
59.7562
59.7268
59.6847
59.6792
59.6929
59.7144
59.7567
59.8199
59.9009
59.9875
60.505
60.852
60.916
60.1020
60.1084
60.1154
60.1121
60.1162
60.965
60.588
60.431
60.543
60.757
60.931
60.1538
60.2361
60.3066
60.3406
60.3466
60.3461
60.3103
60.2617
60.2236
60.1809
60.1300
60.687
60.295
60.139
60.29
60.0
60.111
60.462
60.817
60.1158
60.1131
60.752
60.369
60.16
59.9664
59.9195
59.8744
59.8187
59.7401
59.6845
59.6522
59.6428
59.6385
59.6719
59.7434
59.8223
59.8716
59.8840
59.8891
59.8835
59.8549
59.8381
59.8283
59.8127
59.7799
59.7509
59.7575
59.7802
59.8060
59.8471
59.9169
59.9949
60.674
60.1151
60.1343
60.1346
60.1421
60.1366
60.1305
60.1216
60.1213
60.915
60.492
60.455
60.569
60.706
60.960
60.1728
60.2561
60.3123
60.3347
60.3404
60.3328
60.2891
60.2381
60.2028
60.1576
60.999
60.394
60.94
59.9860
59.9689
59.9634
59.9892
60.179
60.466
60.644
60.469
60.6
59.9623
59.9185
59.8712
59.8265
59.7838
59.7305
59.6635
59.6220
59.6081
59.6048
59.6052
59.6540
59.7239
59.7931
59.8239
59.8312
59.8350
59.8164
59.7800
59.7634
59.7474
59.7312
59.6878
59.6800
59.6994
59.7204
59.7620
59.8214
59.8953
59.9754
60.520
60.999
60.1214
60.1355
60.1399
60.1488
60.1397
60.1361
60.1308
60.906
60.625
60.652
60.758
60.872
60.1272
60.2022
60.2816
60.3338
60.3482
60.3579
60.3417
60.2989
60.2625
60.2240
60.1775
60.1095
60.525
60.183
60.8
59.9950
60.100
60.440
60.771
60.1055
60.1085
60.779
60.296
59.9831
59.9339
59.8786
59.8325
59.7939
59.7185
59.6459
59.6099
59.5940
59.5860
59.5991
59.6652
59.7531
59.8188
59.8454
59.8579
59.8592
59.8340
59.8066
59.7949
59.7759
59.7461
59.7093
59.7043
59.7228
59.7495
59.7891
59.8630
59.9439
60.261
60.976
60.1369
60.1458
60.1556
60.1497
60.1419
60.1333
60.1382
60.1207
60.888
60.804
60.1109
60.1385
60.1647
60.2258
60.3136
60.3887
60.4196
60.4319
60.4279
60.3965
60.3409
60.2932
60.2479
60.1951
60.1309
60.864
60.741
60.665
60.719
60.910
60.1267
60.1575
60.1830
60.1739
60.1365
60.948
60.534
60.71
59.9566
59.9139
59.8675
59.7930
59.7292
59.7028
59.7005
59.7015
59.7237
59.7827
59.8535
59.8854
59.8945
59.8922
59.8785
59.8503
59.8253
59.8204
59.7955
59.7627
59.7445
59.7582
59.7798
59.8144
59.8660
59.9422
60.161
60.835
60.1304
60.1516
60.1492
60.1520
60.1464
60.1425
60.1342
60.1299
60.995
60.597
60.492
60.666
60.870
60.1192
60.1842
60.2659
60.3262
60.3470
60.3530
60.3420
60.2975
60.2501
60.2146
60.1686
60.1153
60.549
60.241
60.86
60.4
59.9982
60.162
60.490
60.824
60.932
60.724
60.239
59.9781
59.9353
59.8881
59.8459
59.8118
59.7526
59.6787
59.6304
59.6177
59.6194
59.6348
59.6834
59.7590
59.8362
59.8647
59.8663
59.8631
59.8505
59.8167
59.7909
59.7865
59.7672
59.7295
59.7166
59.7289
59.7556
59.7892
59.8408
59.9138
59.9864
60.547
60.1033
60.1189
60.1254
60.1344
60.1359
60.1252
60.1247
60.1198
60.906
60.680
60.710
60.916
60.1155
60.1522
60.2232
60.2929
60.3368
60.3501
60.3501
60.3289
60.2786
60.2281
60.1887
60.1512
60.862
60.298
60.114
59.9986
59.9886
59.9961
60.323
60.702
60.997
60.1067
60.824
60.326
59.9885
59.9452
59.9040
59.8610
59.8235
59.7596
59.6941
59.6536
59.6423
59.6478
59.6645
59.7216
59.7947
59.8583
59.8790
59.8835
59.8812
59.8579
59.8287
59.8184
59.8154
59.7936
59.7617
59.7637
59.7877
59.8147
59.8560
59.9147
59.9942
60.690
60.1258
60.1513
60.1552
60.1599
60.1713
60.1677
60.1621
60.1595
60.1396
60.1052
60.875
60.1046
60.1296
60.1538
60.2196
60.3056
60.3784
60.4190
60.4276
60.4233
60.3878
60.3340
60.2889
60.2442
60.1989
60.1222
60.777
60.588
60.436
60.416
60.493
60.812
60.1079
60.1331
60.1294
60.866
60.366
59.9913
59.9502
59.9017
59.8678
59.8228
59.7537
59.6998
59.6747
59.6702
59.6714
59.7006
59.7627
59.8328
59.8775
59.8856
59.8904
59.8800
59.8458
59.8104
59.7972
59.7766
59.7413
59.7182
59.7296
59.7525
59.7790
59.8244
59.9017
59.9765
60.474
60.965
60.1122
60.1150
60.1223
60.1193
60.1238
60.1148
60.1201
60.892
60.531
60.511
60.601
60.767
60.984
60.1644
60.2470
60.3044
60.3283
60.3303
60.3224
60.2777
60.2341
60.2039
60.1699
60.1153
60.512
60.205
60.27
59.9969
60.2
60.250
60.595
60.851
60.1018
60.868
60.401
59.9901
59.9427
59.8916
59.8482
59.8138
59.7496
59.6713
59.6169
59.5892
59.5742
59.5736
59.6182
59.6976
59.7692
59.7995
59.8160
59.8292
59.8165
59.7852
59.7650
59.7577
59.7347
59.6960
59.6844
59.6987
59.7210
59.7606
59.8151
59.8910
59.9683
60.423
60.886
60.1011
60.1049
60.1042
60.1044
60.1076
60.1114
60.1103
60.797
60.554
60.651
60.874
60.1154
60.1628
60.2435
60.3290
60.3799
60.3957
60.3940
60.3795
60.3282
60.2828
60.2407
60.2047
60.1404
60.860
60.615
60.514
60.456
60.517
60.824
60.1218
60.1486
60.1564
60.1290
60.825
60.399
59.9991
59.9631
59.9252
59.8840
59.8209
59.7604
59.7208
59.7114
59.7102
59.7203
59.7665
59.8423
59.8987
59.9123
59.9181
59.9169
59.8866
59.8542
59.8468
59.8302
59.8030
59.7744
59.7709
59.7943
59.8196
59.8642
59.9262
60.6
60.756
60.1348
60.1608
60.1607
60.1700
60.1765
60.1742
60.1696
60.1666
60.1362
60.948
60.759
60.860
60.1031
60.1249
60.1823
60.2616
60.3352
60.3683
60.3739
60.3704
60.3430
60.2853
60.2455
60.2129
60.1735
60.1162
60.720
60.516
60.315
60.174
60.253
60.542
60.782
60.998
60.908
60.483
60.82
59.9650
59.9211
59.8707
59.8278
59.7857
59.7177
59.6568
59.6244
59.6224
59.6182
59.6418
59.7137
59.7879
59.8378
59.8521
59.8627
59.8583
59.8260
59.8065
59.7982
59.7792
59.7455
59.7128
59.7240
59.7473
59.7744
59.8230
59.8956
59.9756
60.541
60.1112
60.1315
60.1389
60.1536
60.1617
60.1587
60.1492
60.1556
60.1277
60.1009
60.987
60.1207
60.1463
60.1760
60.2443
60.3223
60.3794
60.3930
60.3853
60.3688
60.3158
60.2660
60.2292
60.1819
60.1304
60.737
60.461
60.335
60.273
60.411
60.624
60.998
60.1276
60.1411
60.1263
60.848
60.420
59.9993
59.9557
59.9056
59.8719
59.8078
59.7342
59.6755
59.6500
59.6418
59.6363
59.6767
59.7537
59.8208
59.8507
59.8543
59.8596
59.8490
59.8100
59.7964
59.7927
59.7769
59.7432
59.7329
59.7451
59.7627
59.8041
59.8567
59.9384
60.169
60.969
60.1441
60.1597
60.1646
60.1696
60.1670
60.1625
60.1561
60.1526
60.1119
60.896
60.976
60.1177
60.1393
60.1905
60.2700
60.3607
60.4143
60.4358
60.4402
60.4250
60.3761
60.3377
60.3039
60.2563
60.1909
60.1369
60.1127
60.919
60.832
60.896
60.1172
60.1508
60.1733
60.1754
60.1456
60.1012
60.562
60.111
59.9647
59.9167
59.8799
59.8100
59.7489
59.7128
59.7080
59.7072
59.7203
59.7875
59.8672
59.9205
59.9393
59.9426
59.9430
59.9127
59.8803
59.8659
59.8474
59.8179
59.7831
59.7755
59.7870
59.8102
59.8488
59.9134
59.9883
60.652
60.1326
60.1622
60.1700
60.1806
60.1883
60.1849
60.1820
60.1888
60.1675
60.1293
60.972
60.1100
60.1215
60.1384
60.1956
60.2834
60.3540
60.3905
60.3952
60.3934
60.3540
60.3029
60.2640
60.2226
60.1718
60.1089
60.670
60.509
60.456
60.461
60.605
60.1026
60.1383
60.1647
60.1534
60.1137
60.695
60.204
59.9744
59.9231
59.8811
59.8272
59.7475
59.6837
59.6542
59.6452
59.6484
59.6772
59.7483
59.8324
59.8675
59.8854
59.8986
59.8899
59.8611
59.8397
59.8307
59.8106
59.7732
59.7415
59.7516
59.7779
59.8088
59.8600
59.9307
60.74
60.814
60.1316
60.1493
60.1573
60.1637
60.1710
60.1718
60.1590
60.1649
60.1293
60.899
60.842
60.1011
60.1176
60.1568
60.2289
60.3135
60.3723
60.3938
60.3994
60.3854
60.3330
60.2823
60.2483
60.2027
60.1394
60.643
60.273
60.56
59.9906
59.9873
60.118
60.472
60.813
60.900
60.733
60.349
60.39
59.9620
59.9117
59.8621
59.8293
59.7716
59.6992
59.6462
59.6212
59.6070
59.6122
59.6574
59.7368
59.8094
59.8399
59.8453
59.8453
59.8300
59.7987
59.7865
59.7786
59.7572
59.7168
59.7067
59.7251
59.7490
59.7931
59.8576
59.9398
60.165
60.828
60.1277
60.1382
60.1458
60.1514
60.1543
60.1467
60.1434
60.1303
60.875
60.617
60.627
60.786
60.972
60.1389
60.2168
60.2982
60.3433
60.3564
60.3587
60.3376
60.2953
60.2566
60.2145
60.1696
60.1007
60.537
60.245
60.65
59.9932
59.9962
60.274
60.607
60.842
60.887
60.573
60.117
59.9634
59.9149
59.8675
59.8224
59.7791
59.7081
59.6374
59.5978
59.5812
59.5802
59.5926
59.6491
59.7260
59.7869
59.8096
59.8254
59.8268
59.8043
59.7757
59.7592
59.7376
59.7091
59.6704
59.6649
59.6793
59.6950
59.7257
59.7861
59.8645
59.9399
60.63
60.372
60.435
60.577
60.625
60.628
60.611
60.664
60.498
60.124
59.9989
60.148
60.383
60.649
60.1284
60.2070
60.2784
60.3141
60.3183
60.3177
60.2811
60.2197
60.1807
60.1437
60.950
60.309
59.9910
59.9738
59.9587
59.9568
59.9723
60.74
60.400
60.745
60.693
60.387
59.9953
59.9610
59.9201
59.8736
59.8297
59.7783
59.7062
59.6485
59.6121
59.5955
59.5882
59.6072
59.6697
59.7445
59.7955
59.8128
59.8179
59.8090
59.7823
59.7627
59.7502
59.7391
59.7113
59.6780
59.6847
59.7097
59.7362
59.7820
59.8554
59.9350
60.76
60.671
60.902
60.942
60.963
60.1020
60.969
60.895
60.934
60.644
60.321
60.259
60.435
60.635
60.891
60.1628
60.2494
60.3235
60.3499
60.3600
60.3575
60.3223
60.2811
60.2488
60.2089
60.1535
60.917
60.539
60.373
60.311
60.380
60.605
60.976
60.1266
60.1505
60.1380
60.909
60.512
60.169
59.9761
59.9296
59.9005
59.8515
59.7820
59.7335
59.7188
59.7113
59.7155
59.7569
59.8337
59.9069
59.9371
59.9468
59.9493
59.9292
59.8975
59.8779
59.8646
59.8417
59.8027
59.7783
59.7947
59.8124
59.8475
59.8965
59.9780
60.518
60.1297
60.1748
60.1879
60.1917
60.1988
60.1982
60.1948
60.1926
60.1893
60.1528
60.1219
60.1216
60.1432
60.1584
60.1958
60.2724
60.3497
60.3860
60.4027
60.3937
60.3779
60.3264
60.2841
60.2461
60.2058
60.1394
60.838
60.588
60.450
60.417
60.465
60.755
60.1089
60.1390
60.1403
60.1129
60.693
60.301
59.9834
59.9364
59.8912
59.8497
59.7839
59.7088
59.6682
59.6528
59.6526
59.6698
59.7313
59.8107
59.8705
59.8897
59.8998
59.8981
59.8734
59.8491
59.8411
59.8238
59.7968
59.7687
59.7661
59.7837
59.8091
59.8468
59.9103
59.9893
60.642
60.1245
60.1481
60.1527
60.1602
60.1601
60.1531
60.1512
60.1617
60.1492
60.1158
60.1043
60.1224
60.1480
60.1705
60.2337
60.3224
60.3958
60.4281
60.4375
60.4311
60.3883
60.3319
60.2898
60.2443
60.1958
60.1278
60.851
60.700
60.599
60.510
60.691
60.1028
60.1416
60.1613
60.1542
60.1143
60.743
60.349
59.9865
59.9435
59.9062
59.8599
59.7842
59.7283
59.7011
59.6904
59.6844
59.7104
59.7825
59.8513
59.8895
59.8990
59.8967
59.8752
59.8399
59.8165
59.8037
59.7916
59.7562
59.7339
59.7414
59.7679
59.8087
59.8650
59.9459
60.250
60.988
60.1453
60.1627
60.1732
60.1813
60.1842
60.1868
60.1832
60.1862
60.1603
60.1281
60.1218
60.1387
60.1525
60.1900
60.2567
60.3406
60.3981
60.4242
60.4367
60.4337
60.3977
60.3564
60.3217
60.2875
60.2285
60.1711
60.1437
60.1275
60.1148
60.1134
60.1363
60.1641
60.1939
60.2029
60.1839
60.1366
60.944
60.496
60.53
59.9523
59.9100
59.8473
59.7742
59.7255
59.7082
59.7048
59.7127
59.7597
59.8401
59.9070
59.9421
59.9531
59.9593
59.9403
59.9083
59.8958
59.8753
59.8545
59.8188
59.8040
59.8154
59.8360
59.8628
59.9136
59.9877
60.611
60.1241
60.1566
60.1642
60.1662
60.1749
60.1798
60.1813
60.1827
60.1741
60.1346
60.1139
60.1211
60.1419
60.1609
60.2061
60.2840
60.3608
60.3904
60.3995
60.3974
60.3698
60.3161
60.2720
60.2362
60.1973
60.1306
60.731
60.510
60.391
60.290
60.416
60.773
60.1076
60.1435
60.1462
60.1067
60.639
60.264
59.9866
59.9429
59.9023
59.8616
59.7873
59.7237
59.6881
59.6759
59.6760
59.6897
59.7612
59.8377
59.8849
59.8938
59.9062
59.9026
59.8795
59.8550
59.8479
59.8389
59.8224
59.7920
59.7992
59.8262
59.8585
59.9061
59.9749
60.476
60.1205
60.1826
60.2058
60.1964
60.1991
60.1939
60.1907
60.1874
60.1884
60.1557
60.1217
60.1069
60.1255
60.1486
60.1801
60.2444
60.3246
60.3962
60.4198
60.4181
60.4150
60.3699
60.3184
60.2810
60.2356
60.1768
60.1130
60.750
60.494
60.336
60.339
60.464
60.785
60.1046
60.1194
60.1036
60.549
60.51
59.9626
59.9101
59.8650
59.8262
59.7786
59.7166
59.6636
59.6407
59.6415
59.6478
59.6865
59.7593
59.8379
59.8694
59.8818
59.8754
59.8610
59.8204
59.8008
59.7834
59.7648
59.7293
59.7092
59.7220
59.7423
59.7780
59.8280
59.9014
59.9777
60.520
60.964
60.1151
60.1287
60.1415
60.1507
60.1568
60.1595
60.1585
60.1260
60.966
60.941
60.1154
60.1330
60.1663
60.2335
60.3054
60.3539
60.3718
60.3750
60.3591
60.3126
60.2675
60.2406
60.2010
60.1392
60.794
60.535
60.422
60.350
60.434
60.745
60.1098
60.1390
60.1491
60.1215
60.767
60.323
59.9880
59.9363
59.8850
59.8427
59.7746
59.7063
59.6657
59.6507
59.6413
59.6482
59.6946
59.7711
59.8300
59.8526
59.8569
59.8644
59.8407
59.8131
59.7990
59.7885
59.7721
59.7263
59.7184
59.7316
59.7515
59.7859
59.8487
59.9275
59.9972
60.601
60.918
60.938
60.930
60.956
60.925
60.859
60.866
60.765
60.467
60.312
60.433
60.646
60.794
60.1330
60.2217
60.2985
60.3358
60.3480
60.3491
60.3180
60.2697
60.2243
60.1867
60.1387
60.743
60.216
59.9961
59.9832
59.9750
59.9873
60.173
60.469
60.690
60.715
60.353
59.9951
59.9585
59.9154
59.8799
59.8407
59.8086
59.7457
59.6868
59.6525
59.6457
59.6410
59.6546
59.7110
59.7820
59.8278
59.8397
59.8426
59.8363
59.8103
59.7841
59.7773
59.7610
59.7416
59.7116
59.7189
59.7429
59.7730
59.8207
59.8918
59.9671
60.412
60.977
60.1194
60.1273
60.1324
60.1320
60.1333
60.1220
60.1219
60.987
60.553
60.343
60.445
60.604
60.755
60.1451
60.2289
60.2946
60.3233
60.3390
60.3327
60.2946
60.2533
60.2228
60.1825
60.1360
60.759
60.407
60.226
60.151
60.149
60.299
60.658
60.970
60.1115
60.955
60.534
60.46
59.9609
59.9145
59.8669
59.8273
59.7836
59.7116
59.6581
59.6370
59.6305
59.6343
59.6725
59.7502
59.8297
59.8750
59.8860
59.8893
59.8792
59.8497
59.8369
59.8193
59.8052
59.7716
59.7389
59.7552
59.7771
59.8004
59.8577
59.9308
59.9999
60.703
60.1165
60.1290
60.1330
60.1437
60.1495
60.1509
60.1506
60.1511
60.1226
60.938
60.999
60.1197
60.1373
60.1731
60.2440
60.3324
60.3814
60.3933
60.3958
60.3800
60.3297
60.2730
60.2303
60.1809
60.1231
60.609
60.353
60.233
60.125
60.205
60.575
60.940
60.1241
60.1286
60.1111
60.669
60.267
59.9811
59.9369
59.8941
59.8560
59.7902
59.7217
59.6722
59.6546
59.6518
59.6579
59.7075
59.7850
59.8498
59.8720
59.8780
59.8722
59.8526
59.8244
59.8139
59.8029
59.7804
59.7410
59.7357
59.7527
59.7803
59.8266
59.8852
59.9553
60.291
60.982
60.1355
60.1436
60.1527
60.1590
60.1544
60.1493
60.1458
60.1268
60.905
60.645
60.730
60.946
60.1172
60.1690
60.2502
60.3393
60.3797
60.3964
60.3948
60.3751
60.3255
60.2811
60.2485
60.2062
60.1382
60.810
60.593
60.437
60.382
60.430
60.719
60.966
60.1163
60.1114
60.726
60.289
59.9766
59.9278
59.8846
59.8415
59.8037
59.7401
59.6741
59.6409
59.6255
59.6207
59.6402
59.6997
59.7786
59.8351
59.8522
59.8561
59.8438
59.8165
59.7945
59.7805
59.7686
59.7353
59.7041
59.6965
59.7174
59.7326
59.7766
59.8441
59.9232
60.50
60.666
60.1035
60.1114
60.1195
60.1283
60.1287
60.1263
60.1381
60.1138
60.826
60.739
60.889
60.1109
60.1292
60.1902
60.2758
60.3412
60.3740
60.3904
60.3899
60.3563
60.3087
60.2813
60.2458
60.1965
60.1344
60.955
60.834
60.734
60.753
60.1047
60.1421
60.1767
60.2016
60.1914
60.1541
60.1244
60.871
60.396
59.9886
59.9454
59.9020
59.8325
59.7704
59.7432
59.7353
59.7257
59.7559
59.8251
59.9010
59.9377
59.9441
59.9514
59.9417
59.9146
59.8995
59.8862
59.8670
59.8322
59.8132
59.8234
59.8466
59.8732
59.9162
59.9902
60.607
60.1325
60.1738
60.1822
60.1804
60.1881
60.1848
60.1744
60.1633
60.1579
60.1227
60.920
60.942
60.1154
60.1298
60.1658
60.2421
60.3203
60.3723
60.3876
60.3903
60.3706
60.3232
60.2765
60.2352
60.1902
60.1233
60.569
60.250
60.117
60.16
60.62
60.338
60.636
60.861
60.908
60.671
60.200
59.9750
59.9371
59.8905
59.8502
59.8169
59.7643
59.6934
59.6521
59.6351
59.6276
59.6347
59.6845
59.7582
59.8258
59.8487
59.8538
59.8554
59.8342
59.8055
59.7950
59.7824
59.7601
59.7312
59.7264
59.7463
59.7692
59.8087
59.8677
59.9449
60.237
60.933
60.1293
60.1420
60.1541
60.1564
60.1535
60.1447
60.1462
60.1295
60.907
60.659
60.748
60.908
60.1089
60.1542
60.2296
60.3087
60.3430
60.3601
60.3572
60.3332
60.2840
60.2452
60.2009
60.1571
60.901
60.394
60.225
60.153
60.67
60.52
60.334
60.596
60.819
60.769
60.375
59.9956
59.9513
59.9037
59.8543
59.8124
59.7724
59.7050
59.6348
59.5983
59.5867
59.5888
59.6032
59.6657
59.7438
59.7963
59.8165
59.8228
59.8278
59.8049
59.7818
59.7794
59.7644
59.7343
59.6969
59.6998
59.7182
59.7422
59.7747
59.8440
59.9165
59.9934
60.492
60.739
60.766
60.913
60.1036
60.1061
60.1053
60.1183
60.1089
60.795
60.793
60.986
60.1270
60.1490
60.2054
60.2840
60.3534
60.3849
60.3986
60.3937
60.3568
60.3058
60.2711
60.2314
60.1725
60.972
60.594
60.369
60.252
60.321
60.564
60.967
60.1365
60.1649
60.1573
60.1160
60.718
60.235
59.9780
59.9302
59.8879
59.8259
59.7468
59.6875
59.6590
59.6497
59.6445
59.6780
59.7494
59.8227
59.8603
59.8719
59.8698
59.8535
59.8242
59.8025
59.7848
59.7662
59.7263
59.7016
59.7147
59.7376
59.7725
59.8259
59.8988
59.9797
60.559
60.1136
60.1300
60.1331
60.1312
60.1253
60.1179
60.1080
60.1006
60.636
60.305
60.291
60.488
60.714
60.1101
60.1919
60.2814
60.3349
60.3612
60.3651
60.3539
60.3086
60.2575
60.2190
60.1765
60.1158
60.556
60.232
59.9966
59.9857
59.9915
60.185
60.495
60.772
60.943
60.712
60.273
59.9826
59.9437
59.8966
59.8610
59.8263
59.7692
59.6965
59.6514
59.6404
59.6376
59.6478
59.7000
59.7761
59.8443
59.8777
59.8833
59.8791
59.8599
59.8260
59.8119
59.7980
59.7781
59.7354
59.7225
59.7357
59.7590
59.7975
59.8643
59.9364
60.122
60.931
60.1318
60.1390
60.1475
60.1528
60.1540
60.1464
60.1461
60.1312
60.924
60.694
60.786
60.1027
60.1246
60.1735
60.2515
60.3267
60.3688
60.3843
60.3776
60.3472
60.2975
60.2552
60.2184
60.1740
60.1076
60.620
60.441
60.338
60.251
60.471
60.789
60.1201
60.1537
60.1607
60.1361
60.978
60.601
60.139
59.9641
59.9177
59.8739
59.7968
59.7364
59.6962
59.6826
59.6791
59.6972
59.7614
59.8418
59.8933
59.9131
59.9181
59.9181
59.8908
59.8730
59.8625
59.8497
59.8205
59.7889
59.7882
59.8072
59.8383
59.8794
59.9486
60.260
60.1013
60.1602
60.1864
60.1844
60.1889
60.1849
60.1810
60.1683
60.1653
60.1474
60.1114
60.928
60.1173
60.1384
60.1610
60.2280
60.3171
60.3860
60.4113
60.4209
60.4085
60.3670
60.3106
60.2763
60.2346
60.1746
60.1053
60.670
60.479
60.325
60.262
60.434
60.741
60.993
60.1132
60.992
60.571
60.144
59.9665
59.9265
59.8828
59.8460
59.8039
59.7361
59.6892
59.6689
59.6683
59.6759
59.7157
59.7841
59.8602
59.8922
59.8989
59.8960
59.8760
59.8420
59.8172
59.7975
59.7794
59.7400
59.7192
59.7376
59.7568
59.7892
59.8430
59.9249
60.6
60.754
60.1229
60.1380
60.1415
60.1523
60.1515
60.1482
60.1422
60.1428
60.1150
60.867
60.926
60.1138
60.1342
60.1686
60.2410
60.3247
60.3718
60.3907
60.3915
60.3750
60.3292
60.2912
60.2597
60.2158
60.1539
60.954
60.693
60.511
60.386
60.422
60.672
60.916
60.1201
60.1245
60.903
60.421
60.20
59.9517
59.9062
59.8663
59.8222
59.7560
59.6813
59.6271
59.6046
59.6001
59.6103
59.6687
59.7478
59.8093
59.8392
59.8483
59.8497
59.8213
59.7931
59.7739
59.7616
59.7384
59.6988
59.6906
59.7070
59.7284
59.7658
59.8210
59.8975
59.9663
60.301
60.681
60.745
60.821
60.891
60.947
60.908
60.895
60.741
60.402
60.189
60.310
60.556
60.907
60.1475
60.2286
60.3107
60.3491
60.3645
60.3584
60.3320
60.2789
60.2380
60.1978
60.1488
60.830
60.321
60.17
59.9889
59.9914
60.123
60.522
60.864
60.1121
60.1133
60.811
60.430
60.103
59.9697
59.9346
59.8921
59.8585
59.7870
59.7237
59.6878
59.6813
59.6720
59.6923
59.7599
59.8285
59.8785
59.8947
59.8966
59.8906
59.8636
59.8414
59.8383
59.8268
59.8030
59.7753
59.7766
59.7958
59.8279
59.8704
59.9412
60.195
60.916
60.1469
60.1686
60.1655
60.1693
60.1564
60.1517
60.1420
60.1376
60.1131
60.726
60.605
60.817
60.992
60.1196
60.1922
60.2719
60.3405
60.3681
60.3686
60.3593
60.3199
60.2662
60.2289
60.1898
60.1494
60.790
60.409
60.286
60.148
60.176
60.384
60.673
60.897
60.1040
60.824
60.330
59.9871
59.9381
59.8975
59.8494
59.8178
59.7774
59.7082
59.6587
59.6322
59.6232
59.6249
59.6596
59.7334
59.8064
59.8410
59.8528
59.8596
59.8556
59.8302
59.8093
59.7999
59.7785
59.7494
59.7245
59.7299
59.7560
59.7941
59.8528
59.9346
60.138
60.906
60.1442
60.1619
60.1628
60.1648
60.1658
60.1635
60.1646
60.1680
60.1398
60.1108
60.1114
60.1288
60.1439
60.1843
60.2543
60.3287
60.3744
60.3874
60.3797
60.3577
60.3156
60.2709
60.2310
60.1933
60.1279
60.681
60.410
60.317
60.231
60.244
60.589
60.980
60.1249
60.1372
60.1037
60.619
60.157
59.9706
59.9201
59.8733
59.8252
59.7626
59.6878
59.6446
59.6247
59.6188
59.6320
59.6866
59.7623
59.8247
59.8465
59.8537
59.8543
59.8373
59.8146
59.7996
59.7932
59.7752
59.7416
59.7383
59.7637
59.7916
59.8408
59.9041
59.9794
60.551
60.1205
60.1535
60.1571
60.1626
60.1650
60.1672
60.1657
60.1620
60.1573
60.1250
60.1127
60.1244
60.1473
60.1699
60.2278
60.3126
60.3895
60.4352
60.4476
60.4397
60.4093
60.3553
60.3113
60.2783
60.2403
60.1809
60.1313
60.1113
60.904
60.845
60.985
60.1304
60.1589
60.1806
60.1714
60.1404
60.971
60.582
60.120
59.9688
59.9397
59.9020
59.8341
59.7720
59.7347
59.7249
59.7167
59.7298
59.7943
59.8711
59.9167
59.9285
59.9229
59.9178
59.8823
59.8465
59.8289
59.8146
59.7791
59.7475
59.7511
59.7737
59.8110
59.8567
59.9279
60.51
60.796
60.1354
60.1611
60.1611
60.1702
60.1790
60.1763
60.1671
60.1658
60.1431
60.1115
60.1017
60.1208
60.1382
60.1632
60.2298
60.3097
60.3758
60.3955
60.3980
60.3898
60.3553
60.3087
60.2814
60.2454
60.1975
60.1384
60.1061
60.839
60.654
60.696
60.868
60.1194
60.1533
60.1708
60.1538
60.1092
60.631
60.201
59.9766
59.9283
59.8896
59.8431
59.7677
59.7115
59.6920
59.6908
59.6893
59.7358
59.8106
59.8832
59.9202
59.9319
59.9331
59.9213
59.8934
59.8792
59.8697
59.8493
59.8090
59.7874
59.8007
59.8227
59.8525
59.9011
59.9739
60.473
60.1154
60.1598
60.1627
60.1669
60.1757
60.1813
60.1793
60.1808
60.1847
60.1480
60.1205
60.1220
60.1501
60.1710
60.2076
60.2822
60.3581
60.3992
60.4161
60.4113
60.3849
60.3310
60.2773
60.2324
60.1857
60.1190
60.611
60.284
60.58
59.9915
59.9909
60.181
60.456
60.724
60.829
60.563
60.133
59.9720
59.9287
59.8855
59.8432
59.8101
59.7512
59.6902
59.6467
59.6278
59.6152
59.6237
59.6717
59.7408
59.7984
59.8188
59.8227
59.8274
59.8133
59.7845
59.7756
59.7683
59.7499
59.7232
59.7202
59.7467
59.7765
59.8164
59.8751
59.9550
60.377
60.1044
60.1399
60.1480
60.1581
60.1661
60.1641
60.1541
60.1492
60.1298
60.887
60.593
60.659
60.779
60.1011
60.1564
60.2372
60.3103
60.3401
60.3499
60.3477
60.3202
60.2723
60.2312
60.1970
60.1492
60.836
60.373
60.153
60.54
59.9967
60.113
60.360
60.642
60.814
60.709
60.312
59.9898
59.9488
59.9041
59.8645
59.8197
59.7854
59.7110
59.6503
59.6173
59.6066
59.6004
59.6241
59.6911
59.7654
59.8210
59.8383
59.8392
59.8345
59.8075
59.7846
59.7735
59.7556
59.7127
59.6774
59.6797
59.6929
59.7183
59.7607
59.8252
59.9005
59.9764
60.343
60.616
60.685
60.791
60.850
60.896
60.851
60.934
60.700
60.272
60.182
60.397
60.578
60.798
60.1427
60.2187
60.2861
60.3127
60.3173
60.3155
60.2756
60.2292
60.1899
60.1457
60.930
60.277
59.9922
59.9697
59.9579
59.9608
59.9894
60.196
60.566
60.760
60.680
60.353
59.9999
59.9528
59.9092
59.8610
59.8241
59.7727
59.6959
59.6387
59.6071
59.5870
59.5832
59.6131
59.6779
59.7484
59.7813
59.7977
59.7996
59.7903
59.7568
59.7413
59.7325
59.7159
59.6790
59.6493
59.6516
59.6704
59.7065
59.7482
59.8253
59.9043
59.9833
60.370
60.578
60.660
60.747
60.755
60.728
60.622
60.613
60.308
59.9972
59.9977
60.196
60.368
60.705
60.1463
60.2375
60.2981
60.3232
60.3327
60.3289
60.2872
60.2413
60.2074
60.1676
60.1114
60.497
60.198
60.61
59.9929
59.9884
60.162
60.488
60.824
60.995
60.797
60.418
60.128
59.9721
59.9361
59.8985
59.8731
59.8150
59.7447
59.7014
59.6871
59.6853
59.6922
59.7413
59.8155
59.8784
59.9085
59.9125
59.9110
59.8912
59.8616
59.8495
59.8383
59.8173
59.7804
59.7707
59.7841
59.8133
59.8479
59.9011
59.9771
60.551
60.1184
60.1584
60.1682
60.1744
60.1832
60.1878
60.1829
60.1816
60.1676
60.1255
60.1022
60.1104
60.1294
60.1440
60.1877
60.2637
60.3351
60.3689
60.3827
60.3862
60.3678
60.3204
60.2850
60.2559
60.2155
60.1453
60.1041
60.799
60.646
60.510
60.582
60.890
60.1140
60.1397
60.1388
60.1022
60.585
60.248
59.9772
59.9356
59.8896
59.8464
59.7675
59.6941
59.6515
59.6387
59.6326
59.6507
59.7173
59.7939
59.8495
59.8693
59.8805
59.8860
59.8644
59.8464
59.8352
59.8249
59.7961
59.7642
59.7615
59.7797
59.8000
59.8394
59.9036
59.9738
60.469
60.1120
60.1375
60.1456
60.1626
60.1787
60.1855
60.1829
60.1847
60.1565
60.1205
60.1102
60.1278
60.1440
60.1635
60.2300
60.3097
60.3777
60.4046
60.4130
60.4105
60.3701
60.3203
60.2882
60.2425
60.1847
60.1120
60.681
60.453
60.272
60.192
60.327
60.672
60.1019
60.1231
60.1099
60.693
60.257
59.9906
59.9457
59.9010
59.8560
59.8040
59.7269
59.6641
59.6355
59.6261
59.6194
59.6503
59.7204
59.7912
59.8260
59.8380
59.8396
59.8280
59.7941
59.7755
59.7715
59.7520
59.7170
59.6997
59.7087
59.7270
59.7634
59.8196
59.8972
59.9755
60.438
60.915
60.1177
60.1204
60.1326
60.1392
60.1378
60.1348
60.1340
60.974
60.748
60.771
60.924
60.1158
60.1545
60.2332
60.3126
60.3692
60.3903
60.4036
60.3993
60.3616
60.3240
60.2921
60.2504
60.1910
60.1316
60.1065
60.916
60.829
60.842
60.1042
60.1307
60.1597
60.1646
60.1416
60.966
60.496
60.158
59.9713
59.9326
59.9029
59.8369
59.7681
59.7207
59.7025
59.6941
59.6947
59.7452
59.8186
59.8758
59.8966
59.9067
59.9125
59.8905
59.8564
59.8470
59.8392
59.8196
59.7830
59.7640
59.7724
59.7915
59.8214
59.8780
59.9518
60.259
60.907
60.1243
60.1349
60.1551
60.1641
60.1611
60.1537
60.1545
60.1431
60.1094
60.902
60.1001
60.1200
60.1324
60.1781
60.2579
60.3341
60.3692
60.3821
60.3840
60.3584
60.3056
60.2613
60.2210
60.1648
60.910
60.376
60.175
60.70
60.15
60.169
60.460
60.822
60.1101
60.1125
60.811
60.446
60.71
59.9662
59.9214
59.8776
59.8341
59.7602
59.6930
59.6535
59.6387
59.6335
59.6511
59.7118
59.7921
59.8420
59.8582
59.8647
59.8613
59.8391
59.8137
59.8058
59.7964
59.7650
59.7406
59.7467
59.7648
59.7992
59.8438
59.9157
59.9933
60.645
60.1202
60.1380
60.1369
60.1435
60.1405
60.1409
60.1390
60.1418
60.1218
60.841
60.786
60.980
60.1174
60.1495
60.2135
60.2970
60.3587
60.3850
60.3935
60.3837
60.3415
60.2968
60.2639
60.2234
60.1625
60.963
60.533
60.344
60.188
60.119
60.235
60.512
60.726
60.857
60.650
60.241
59.9838
59.9447
59.8975
59.8483
59.8170
59.7690
59.7022
59.6512
59.6346
59.6264
59.6230
59.6636
59.7390
59.8068
59.8390
59.8407
59.8407
59.8278
59.7942
59.7794
59.7729
59.7537
59.7156
59.7005
59.7147
59.7442
59.7807
59.8334
59.9136
59.9898
60.645
60.1086
60.1332
60.1382
60.1516
60.1533
60.1518
60.1561
60.1578
60.1255
60.957
60.972
60.1115
60.1280
60.1644
60.2327
60.3068
60.3518
60.3656
60.3658
60.3490
60.3074
60.2731
60.2380
60.1998
60.1492
60.919
60.607
60.458
60.369
60.387
60.649
60.843
60.1136
60.1136
60.827
60.363
59.9906
59.9341
59.8908
59.8433
59.8079
59.7447
59.6707
59.6201
59.6066
59.6029
59.6008
59.6524
59.7234
59.7826
59.8078
59.8139
59.8234
59.8091
59.7836
59.7691
59.7577
59.7406
59.6990
59.6900
59.7055
59.7244
59.7593
59.8123
59.8908
59.9638
60.307
60.616
60.676
60.707
60.728
60.741
60.737
60.670
60.633
60.378
60.147
60.298
60.584
60.744
60.1289
60.2085
60.2877
60.3231
60.3330
60.3264
60.2943
60.2424
60.2011
60.1608
60.1150
60.429
59.9979
59.9761
59.9674
59.9625
59.9726
60.27
60.299
60.544
60.561
60.239
59.9868
59.9428
59.9023
59.8580
59.8181
59.7798
59.7158
59.6568
59.6208
59.6092
59.6114
59.6275
59.6886
59.7579
59.7992
59.8157
59.8183
59.8072
59.7763
59.7451
59.7396
59.7268
59.7027
59.6719
59.6770
59.7016
59.7342
59.7828
59.8626
59.9387
60.177
60.692
60.954
60.984
60.1105
60.1175
60.1160
60.1088
60.1090
60.956
60.602
60.559
60.734
60.951
60.1232
60.1799
60.2557
60.3245
60.3526
60.3596
60.3545
60.3219
60.2779
60.2466
60.2093
60.1741
60.1136
60.774
60.653
60.561
60.532
60.677
60.973
60.1184
60.1384
60.1153
60.795
60.383
59.9995
59.9576
59.9195
59.8804
59.8413
59.7742
59.7311
59.7080
59.6976
59.6969
59.7322
59.8066
59.8748
59.9089
59.9275
59.9322
59.9266
59.8974
59.8821
59.8750
59.8604
59.8169
59.7926
59.7988
59.8163
59.8517
59.8972
59.9667
60.432
60.1145
60.1621
60.1774
60.1842
60.1888
60.1910
60.1933
60.1961
60.1962
60.1641
60.1333
60.1329
60.1501
60.1660
60.2000
60.2667
60.3433
60.3885
60.3989
60.3921
60.3712
60.3161
60.2674
60.2306
60.1889
60.1322
60.774
60.545
60.396
60.331
60.385
60.621
60.992
60.1239
60.1325
60.1089
60.638
60.303
59.9883
59.9393
59.8977
59.8595
59.7993
59.7267
59.6867
59.6619
59.6512
59.6523
59.6949
59.7657
59.8228
59.8469
59.8500
59.8514
59.8378
59.8071
59.7940
59.7906
59.7756
59.7441
59.7484
59.7736
59.7978
59.8344
59.9001
59.9760
60.471
60.1147
60.1384
60.1402
60.1431
60.1517
60.1475
60.1481
60.1513
60.1390
60.1103
60.944
60.1039
60.1312
60.1495
60.2004
60.2814
60.3564
60.3951
60.4074
60.4074
60.3729
60.3191
60.2815
60.2468
60.2043
60.1392
60.920
60.672
60.526
60.418
60.514
60.803
60.1020
60.1206
60.1074
60.658
60.193
59.9727
59.9217
59.8795
59.8352
59.7982
59.7369
59.6748
59.6398
59.6266
59.6325
59.6528
59.7131
59.7804
59.8237
59.8366
59.8333
59.8271
59.7967
59.7692
59.7628
59.7443
59.7200
59.6947
59.7022
59.7232
59.7509
59.7845
59.8488
59.9281
60.58
60.612
60.855
60.937
60.1091
60.1188
60.1208
60.1290
60.1356
60.1167
60.827
60.712
60.834
60.1030
60.1259
60.1852
60.2671
60.3287
60.3610
60.3709
60.3719
60.3484
60.3029
60.2666
60.2338
60.1824
60.1302
60.989
60.887
60.768
60.812
60.1042
60.1434
60.1748
60.1893
60.1711
60.1222
60.815
60.355
59.9909
59.9477
59.9047
59.8565
59.7827
59.7243
59.6973
59.6926
59.6929
59.7285
59.8010
59.8774
59.9038
59.9217
59.9173
59.9035
59.8682
59.8501
59.8413
59.8199
59.7882
59.7721
59.7844
59.8068
59.8373
59.8864
59.9567
60.254
60.1026
60.1502
60.1600
60.1594
60.1643
60.1645
60.1606
60.1574
60.1509
60.1163
60.880
60.948
60.1142
60.1273
60.1575
60.2390
60.3156
60.3684
60.3899
60.3863
60.3665
60.3250
60.2815
60.2515
60.2017
60.1316
60.687
60.363
60.175
60.69
60.116
60.363
60.713
60.983
60.1070
60.852
60.473
60.133
59.9665
59.9205
59.8784
59.8452
59.7883
59.7180
59.6735
59.6628
59.6573
59.6643
59.7196
59.7959
59.8579
59.8847
59.8915
59.8821
59.8555
59.8244
59.8111
59.8139
59.7887
59.7551
59.7522
59.7691
59.7967
59.8449
59.9055
59.9845
60.649
60.1333
60.1698
60.1810
60.1852
60.1927
60.1851
60.1724
60.1665
60.1493
60.1103
60.849
60.892
60.1065
60.1174
60.1676
60.2451
60.3192
60.3561
60.3726
60.3734
60.3510
60.3017
60.2644
60.2192
60.1772
60.1174
60.729
60.520
60.419
60.333
60.377
60.656
60.957
60.1194
60.1139
60.763
60.338
59.9933
59.9415
59.8914
59.8514
59.8159
59.7456
59.6804
59.6365
59.6320
59.6310
59.6537
59.7211
59.7930
59.8430
59.8643
59.8692
59.8696
59.8502
59.8238
59.8204
59.8124
59.7918
59.7659
59.7643
59.7873
59.8115
59.8483
59.9170
59.9911
60.667
60.1195
60.1477
60.1549
60.1666
60.1770
60.1808
60.1770
60.1817
60.1599
60.1279
60.1243
60.1448
60.1666
60.1964
60.2605
60.3433
60.4039
60.4277
60.4299
60.4248
60.3778
60.3306
60.3018
60.2589
60.2041
60.1452
60.1077
60.926
60.809
60.744
60.951
60.1285
60.1509
60.1703
60.1570
60.1166
60.795
60.370
59.9948
59.9470
59.9123
59.8608
59.7843
59.7336
59.7023
59.6864
59.6784
59.7099
59.7785
59.8440
59.8739
59.8804
59.8821
59.8715
59.8346
59.8185
59.8065
59.7944
59.7655
59.7490
59.7663
59.7882
59.8212
59.8737
59.9480
60.267
60.929
60.1342
60.1381
60.1413
60.1432
60.1395
60.1347
60.1351
60.1253
60.860
60.539
60.565
60.784
60.946
60.1344
60.2146
60.2951
60.3512
60.3723
60.3822
60.3684
60.3257
60.2866
60.2533
60.2127
60.1556
60.996
60.691
60.512
60.337
60.336
60.586
60.861
60.1116
60.1141
60.864
60.406
60.7
59.9588
59.9157
59.8753
59.8476
59.7876
59.7178
59.6814
59.6670
59.6609
59.6730
59.7269
59.8113
59.8699
59.8936
59.8944
59.8874
59.8660
59.8348
59.8283
59.8112
59.7929
59.7605
59.7509
59.7634
59.7842
59.8190
59.8815
59.9523
60.305
60.982
60.1398
60.1441
60.1521
60.1617
60.1646
60.1648
60.1734
60.1566
60.1122
60.912
60.941
60.1117
60.1266
60.1765
60.2550
60.3309
60.3703
60.3802
60.3746
60.3452
60.3026
60.2630
60.2276
60.1777
60.1111
60.728
60.548
60.476
60.520
60.712
60.1084
60.1552
60.1879
60.1997
60.1842
60.1599
60.1417
60.1186
60.1014
60.929
60.850
60.405
60.312
60.547
60.927
60.1525
60.2409
60.3859
60.5378
60.6550
60.7551
60.8429
60.9257
60.9883
61.734
61.1724
61.2611
61.3286
61.4331
61.5632
61.7053
61.8668
62.639
62.2813
62.4982
62.7023
62.8776
63.345
63.1962
63.3544
63.5063
63.6643
63.8190
63.9488
64.985
64.2817
64.4786
64.6810
64.9344
65.2136
65.4642
65.6859
65.8934
66.626
66.2097
66.3780
66.5474
66.7013
66.8516
67.414
67.2385
67.4486
67.6826
67.9403
68.2031
68.4396
68.6450
68.8458
69.375
69.2281
69.4198
69.6325
69.8002
69.9803
70.1984
70.4277
70.6748
70.9958
71.3255
71.6060
71.8700
72.1216
72.3399
72.5786
72.8293
73.622
73.3125
73.5985
73.8858
74.1919
74.5403
74.8974
75.2278
75.5183
75.8078
76.904
76.3702
76.6609
76.9271
77.1699
77.4464
77.7203
78.188
78.3902
78.7524
79.717
79.3754
79.6221
79.8622
80.1212
80.3559
80.5985
80.8692
81.1320
81.4111
81.7334
82.645
82.3570
82.6014
82.8536
83.995
83.3606
83.6221
83.8516
84.1061
84.3605
84.6684
85.574
85.4190
85.7280
86.291
86.2892
86.5758
86.8634
87.1442
87.4698
87.7831
88.1265
88.5136
88.8949
89.2161
89.5300
89.8469
90.1610
90.5019
90.7768
91.929
91.3842
91.7142
92.1268
92.4831
92.8262
93.1064
93.3619
93.6462
93.8960
94.1973
94.4764
94.7745
95.1220
95.4692
95.7597
96.311
96.3038
96.5943
96.8895
97.1403
97.4179
97.6819
98.708
98.4584
98.7929
99.1049
99.3811
99.6955
99.9788
100.3187
100.6432
100.9872
101.3782
101.7541
102.732
102.3944
102.6990
103.511
103.3272
103.6439
103.9153
104.2827
104.6944
105.482
105.3571
105.6030
105.8910
106.1580
106.4715
106.7407
107.593
107.4166
107.7196
107.9980
108.2647
108.5728
108.8575
109.1277
109.3865
109.7079
110.1335
110.4913
110.8151
111.847
111.3982
111.6957
112.414
112.3607
112.7456
113.1464
113.4831
113.8130
114.1266
114.4785
114.7654
115.763
115.3624
115.7871
116.1554
116.4854
116.7246
117.198
117.2955
117.6142
117.8914
118.2334
118.5860
118.8728
119.1459
119.4272
119.7282
120.102
120.2538
120.6032
121.113
121.3670
121.6375
121.9386
122.2431
122.6011
122.9164
123.2985
123.6977
124.300
124.3478
124.6716
124.9977
125.3197
125.5788
125.9741
126.3686
126.7226
126.9591
127.2455
127.5299
127.8349
128.1196
128.4791
128.7865
129.629
129.3195
129.6543
129.9193
130.1708
130.4884
130.8907
131.2319
131.4879
131.8016
132.1081
132.4634
132.7880
133.1931
133.5360
133.8663
134.1688
134.5182
134.8337
135.747
135.4618
135.8444
136.1764
136.4038
136.6847
137.91
137.2671
137.5892
137.9260
138.2081
138.4589
138.7921
139.628
139.3085
139.6398
140.457
140.3929
140.6438
140.9526
141.3020
141.6232
141.9842
142.3649
142.6896
142.9814
143.3331
143.6477
143.9070
144.2848
144.6644
144.9812
145.2050
145.4821
145.8088
146.614
146.4265
146.7343
146.9969
147.2884
147.5863
147.8648
148.1325
148.5583
148.9137
149.1580
149.4647
149.8154
150.1250
150.5029
150.8551
151.1743
151.4738
151.8017
152.1211
152.3805
152.7927
153.1541
153.3643
153.6353
153.9665
154.2120
154.5514
154.8576
155.1182
155.4161
155.7088
155.9559
156.2775
156.6747
156.9995
157.2667
157.5748
157.9235
158.2325
158.6218
158.9554
159.2419
159.5907
159.9078
160.1338
160.5474
160.9209
161.1246
161.3941
161.7257
161.9676
162.3267
162.6224
162.8598
163.1914
163.4678
163.6662
164.963
164.4646
164.7073
165.52
165.3691
165.6632
166.546
166.3953
166.6802
167.329
167.3616
167.5829
168.81
168.3745
168.5849
168.8699
169.1829
169.4459
169.7978
170.722
170.3301
170.6623
170.9123
171.2293
171.6309
171.9169
172.2005
172.5455
172.8526
173.2316
173.5654
173.8580
174.2041
174.5314
174.7442
175.1559
175.5022
175.7076
176.37
176.2899
176.5854
176.9117
177.1699
177.4838
177.7807
177.9651
178.3933
178.7592
178.9936
179.3163
179.6616
179.9908
180.3559
180.6718
181.39
181.3354
181.5397
181.9573
182.3214
182.5220
182.8404
183.1085
183.4288
183.7420
183.9727
184.3134
184.6002
184.8434
185.2631
185.5628
185.8427
186.2207
186.5173
186.9086
187.2431
187.5319
187.8823
188.1255
188.4972
188.8844
189.777
189.3794
189.6849
189.9822
190.3079
190.5442
190.8866
191.1706
191.4318
191.8529
192.1204
192.4139
192.7917
193.766
193.4444
193.7622
194.931
194.4362
194.6392
195.514
195.3459
195.5646
195.9164
196.1416
196.4981
196.7675
197.659
197.3757
197.5662
197.9980
198.3047
198.5764
198.9583
199.2470
199.6269
199.9409
200.2680
200.6087
200.8265
201.2526
201.5251
201.7715
202.1292
202.3666
202.6999
202.9419
203.2907
203.5618
203.8632
204.2667
204.4837
204.8220
205.1648
205.5152
205.8589
206.1371
206.5056
206.7074
207.1023
207.4470
207.6501
208.103
208.2346
208.5778
208.8207
209.1431
209.4419
209.7026
210.1093
210.3287
210.6670
211.28
211.3594
211.6932
211.9719
212.3349
212.5214
212.9320
213.2061
213.4441
213.8075
214.642
214.3834
214.6006
214.9684
215.1529
215.5576
215.8950
216.1394
216.5302
216.8089
217.1709
217.4579
217.8143
218.613
218.4189
218.7725
218.9573
219.3295
219.5497
219.8925
220.1088
220.4705
220.6846
221.705
221.4181
221.6379
222.366
222.3126
222.6759
222.9412
223.3088
223.5194
223.9006
224.2163
224.4216
224.7854
225.284
225.3483
225.5738
225.9437
226.1133
226.5568
226.8078
227.1220
227.4699
227.8198
228.1512
228.4406
228.7941
229.272
229.4488
229.6036
229.9562
230.1715
230.5161
230.7445
231.1033
231.3051
231.7088
232.254
232.2820
232.6637
232.9870
233.3356
233.6231
233.9929
234.2015
234.6308
234.7962
235.1738
235.3804
235.7298
235.9550
236.3320
236.5056
236.9359
237.2160
237.5182
237.8568
238.2149
238.5332
238.8402
239.1303
239.4297
239.7885
239.9621
240.3369
240.5890
240.9127
241.1785
241.5235
241.7635
242.1778
242.3790
242.7846
243.595
243.4247
243.6968
244.835
244.2773
244.7213
244.8785
245.2635
245.4658
245.8159
246.471
246.4369
246.6276
247.774
247.2837
247.6832
247.9485
248.3159
248.5843
248.9696
249.1499
249.5911
249.7485
250.1282
250.3290
250.6670
250.9052
251.2787
251.4983
251.9281
252.1218
252.5295
252.8032
253.1545
253.4214
253.7696
254.141
254.3889
254.5518
254.9133
255.1868
255.4720
255.7661
255.9947
256.3835
256.6665
256.9628
257.2823
257.6348
257.9009
258.2764
258.4439
258.9042
259.717
259.4560
259.6562
259.9962
260.2256
260.5786
260.8232
261.2197
261.4263
261.8122
262.1274
262.4273
262.7541
262.9609
263.3720
263.5759
263.9297
264.1274
264.4815
264.7013
265.858
265.3109
265.7096
265.9056
266.2960
266.6085
266.9031
267.2468
267.4295
267.8705
268.434
268.4273
268.6217
268.9637
269.2033
269.5102
269.8235
270.1490
270.4340
270.7438
271.944
271.3540
271.7527
271.9206
272.3482
272.4749
272.8416
273.1117
273.3509
273.7070
273.8680
274.3496
274.5319
274.9467
275.2057
275.5447
275.8160
276.472
276.4529
276.6488
277.189
277.2027
277.5540
277.8001
278.628
278.4255
278.6900
279.549
279.3175
279.6933
279.9438
280.2766
280.5424
280.8215
281.1135
281.3334
281.6990
281.9195
282.2480
282.5449
282.8715
283.1939
283.4664
283.8556
284.1126
284.4506
284.6936
284.9845
285.2853
285.4955
285.8613
286.907
286.3867
286.7157
286.9952
287.3708
287.6292
288.81
288.2522
288.5136
288.8707
289.822
289.4671
289.6548
289.9888
290.2703
290.4560
290.9395
291.1297
291.5545
291.8182
292.1228
292.4733
292.6322
293.835
293.1701
293.5321
293.8073
293.9983
294.4001
294.5774
294.9239
295.1355
295.4130
295.7378
295.9361
296.2135
296.4540
296.6165
296.9344
297.473
297.2960
297.4904
297.5968
297.9909
298.467
298.3687
298.5484
298.7038
299.22
299.371
299.3128
299.3646
299.5080
299.7217
299.8029
299.9754
300.1759
300.2764
300.5395
300.6279
300.8074
300.9346
300.9583
301.2531
301.1651
301.3722
301.4916
301.5195
301.7492
301.7670
301.9087
302.350
302.1188
302.2987
302.3412
302.3754
302.5823
302.5223
302.7239
302.7175
302.7380
302.9302
302.8860
303.957
303.680
303.1730
303.3040
303.3399
303.4357
303.5066
303.4848
303.6357
303.5732
303.6458
303.7445
303.6720
303.9010
303.8109
303.9516
304.365
304.480
304.1892
304.1401
304.1781
304.2456
304.1977
304.2923
304.2978
304.2211
304.4433
304.3376
304.5027
304.5231
304.5242
304.6752
304.5669
304.6371
304.6283
304.5898
304.6702
304.6248
304.5824
304.7562
304.6735
304.8270
304.8049
304.8068
304.9280
304.8230
304.9677
304.8560
304.8394
304.9155
304.8652
304.8803
304.9706
304.9068
305.491
305.32
305.325
305.1034
304.9789
305.1328
304.9600
304.9874
305.290
304.9669
305.177
305.190
304.9883
305.965
305.451
305.1066
305.1108
304.9870
305.1652
304.9662
305.281
305.309
304.9503
305.552
304.9879
304.9943
305.592
305.257
305.1043
305.540
304.9670
305.1286
304.9339
305.272
304.9811
304.8908
305.114
304.9084
304.9807
304.9672
304.9495
305.271
304.9635
304.9074
305.112
304.8681
304.9723
304.8796
304.8260
304.9230
304.8036
304.9166
304.8253
304.8443
304.9069
304.8526
304.8642
304.8812
304.7768
304.8614
304.7429
304.7369
304.7926
304.6546
304.8227
304.6787
304.7425
304.7859
304.7427
304.8198
304.7384
304.6951
304.7608
304.6478
304.6824
304.6607
304.5378
304.7239
304.5708
304.6744
304.6648
304.6210
304.7290
304.5892
304.6112
304.5948
304.5099
304.5680
304.5020
304.4162
304.5712
304.4474
304.5750
304.5277
304.4911
304.6035
304.4599
304.5573
304.4337
304.3864
304.4413
304.3665
304.3392
304.4189
304.3448
304.4629
304.3967
304.4109
304.4554
304.3129
304.4607
304.2629
304.2803
304.3066
304.2265
304.2788
304.2526
304.2218
304.3067
304.2626
304.3180
304.2854
304.1682
304.3311
304.1115
304.1927
304.1606
304.803
304.1866
304.805
304.1191
304.1265
304.965
304.1790
304.1163
304.519
304.1660
304.54
304.1048
304.183
303.9429
304.585
303.9372
304.582
303.9566
303.9736
304.201
303.9639
303.9711
303.9711
303.8659
303.9511
303.8353
303.8291
303.8641
303.7350
303.8988
303.7391
303.8225
303.8430
303.7949
303.8822
303.7727
303.7520
303.7783
303.6694
303.7157
303.6651
303.5669
303.7411
303.5990
303.7211
303.6952
303.6436
303.7603
303.6258
303.6932
303.6018
303.5464
303.5957
303.5130
303.4813
303.5688
303.4727
303.6031
303.5389
303.5324
303.5910
303.4597
303.6033
303.4034
303.4315
303.4536
303.3773
303.4336
303.4016
303.3711
303.4456
303.4065
303.4527
303.4086
303.3066
303.4636
303.2563
303.3514
303.3151
303.2230
303.3390
303.2346
303.2972
303.2774
303.2716
303.3482
303.2784
303.2515
303.3325
303.1882
303.2902
303.1820
303.1346
303.2192
303.909
303.2365
303.1037
303.1577
303.1961
303.1573
303.2171
303.1438
303.930
303.1635
303.581
303.834
303.618
302.9481
303.1414
302.9856
303.995
303.858
303.410
303.1523
303.255
303.853
303.243
302.9595
303.191
302.9434
302.8947
303.82
302.9089
303.376
302.9815
302.9846
303.441
302.9025
303.367
302.8399
302.8593
302.8780
302.8041
302.8556
302.8256
302.7926
302.8779
302.8327
302.8895
302.8478
302.7405
302.8946
302.6934
302.7887
302.7419
302.6475
302.7565
302.6455
302.7349
302.6815
302.6790
302.7540
302.6868
302.6686
302.7339
302.6087
302.6965
302.5892
302.5586
302.6192
302.4823
302.6491
302.4950
302.5753
302.6123
302.5670
302.6421
302.5551
302.5385
302.5739
302.4732
302.5189
302.4673
302.3652
302.5289
302.3923
302.5186
302.4848
302.4505
302.5541
302.4216
302.5214
302.3922
302.3726
302.4273
302.3506
302.3594
302.4089
302.3489
302.4723
302.4137
302.4410
302.4552
302.3357
302.5058
302.2913
302.3678
302.3638
302.2880
302.3976
302.3106
302.3411
302.3657
302.3432
302.4275
302.3660
302.3128
302.4291
302.2800
302.3843
302.3030
302.2349
302.3409
302.2237
302.3700
302.2554
302.3057
302.3527
302.3198
302.3726
302.3318
302.2781
302.3505
302.2418
302.2799
302.2677
302.1467
302.3276
302.1832
302.3085
302.2939
302.2597
302.3600
302.2179
302.2929
302.2260
302.1590
302.2143
302.1432
302.1037
302.1983
302.1157
302.2369
302.1796
302.1873
302.2268
302.1046
302.2659
302.567
302.950
302.1094
302.383
302.1272
302.623
302.696
302.1214
302.937
302.1691
302.1148
302.453
302.1817
302.34
302.1017
302.280
301.9585
302.747
301.9551
302.708
301.9687
302.1
302.574
302.140
302.530
302.296
301.9460
302.278
301.9186
301.9367
301.9271
301.8097
301.9986
301.8410
301.9586
301.9573
301.9116
302.191
301.8914
301.9492
301.8925
301.8302
301.8992
301.8223
301.7790
301.8880
301.7978
301.9323
301.8738
301.8849
301.9447
301.8296
301.9775
301.7705
301.8138
301.8293
301.7418
301.8331
301.7809
301.7838
301.8457
301.8058
301.8761
301.8209
301.7500
301.8933
301.7256
301.8326
301.7514
301.6795
301.7959
301.6807
301.7990
301.7028
301.7402
301.7896
301.7463
301.7866
301.7656
301.6971
301.7797
301.6680
301.7059
301.7021
301.5896
301.7757
301.6248
301.7489
301.7342
301.6942
301.8178
301.6829
301.7469
301.6801
301.6213
301.6905
301.6078
301.5835
301.6706
301.5935
301.7099
301.6565
301.6767
301.7081
301.5923
301.7545
301.5491
301.6110
301.6203
301.5449
301.6426
301.5578
301.5818
301.6254
301.5938
301.6666
301.6007
301.5357
301.6521
301.5043
301.6155
301.5249
301.4700
301.5679
301.4576
301.5911
301.4637
301.5141
301.5716
301.5301
301.5931
301.5317
301.4810
301.5341
301.4450
301.4829
301.4374
301.3311
301.5191
301.3821
301.5152
301.4855
301.4444
301.5471
301.4107
301.5197
301.3963
301.3688
301.4243
301.3362
301.3583
301.4067
301.3477
301.4695
301.4192
301.4729
301.4634
301.3438
301.5077
301.2894
301.3711
301.3602
301.2772
301.3890
301.2923
301.3599
301.3381
301.3277
301.3992
301.3309
301.3176
301.3843
301.2657
301.3647
301.2611
301.2392
301.2919
301.1708
301.3414
301.1832
301.2770
301.3192
301.2764
301.3637
301.2653
301.2717
301.2884
301.2067
301.2682
301.1994
301.1327
301.2861
301.1773
301.3046
301.2584
301.2491
301.3347
301.2158
301.3577
301.1701
301.1825
301.2173
301.1451
301.2065
301.1876
301.1640
301.2497
301.2107
301.2827
301.2386
301.1564
301.3030
301.1279
301.2327
301.1720
301.992
301.2207
301.1024
301.2330
301.1467
301.1758
301.2358
301.1890
301.2337
301.2171
301.1536
301.2350
301.1296
301.1557
301.1439
301.335
301.2270
301.918
301.2100
301.2068
301.1627
301.2797
301.1331
301.2083
301.1218
301.690
301.1306
301.434
301.408
301.1163
301.456
301.1640
301.1104
301.1486
301.1639
301.384
301.2040
300.9987
301.816
301.707
300.9794
301.947
301.107
301.553
301.574
301.453
301.1256
301.621
301.394
301.1230
300.9938
301.997
301.60
300.9670
301.455
300.9225
301.914
300.9512
301.387
301.667
301.228
301.1099
301.148
301.132
301.257
300.9459
301.8
300.9356
300.8656
301.113
300.9043
301.364
300.9992
300.9771
301.633
300.9294
301.648
300.8868
300.9169
300.9535
300.8829
300.9503
300.9249
300.9213
300.9998
300.9680
301.314
300.9880
300.9159
301.666
300.8971
301.87
300.9422
300.8713
300.9979
300.8837
301.56
300.9120
300.9460
301.13
300.9665
301.115
300.9802
300.9270
301.72
300.9017
300.9374
300.9222
300.8182
301.154
300.8650
300.9850
300.9621
300.9358
301.585
300.9208
301.228
300.9269
300.8988
300.9647
300.8917
300.9019
300.9641
300.8925
301.112
300.9598
300.9946
300.9943
300.8827
301.402
300.8243
300.9080
300.8839
300.7990
300.9284
300.8356
300.9044
300.8858
300.8809
300.9566
300.8898
300.8857
300.9431
300.8271
300.9306
300.8371
300.8232
300.8689
300.7552
300.9257
300.7696
300.8720
300.8953
300.8596
300.9638
300.8414
300.8686
300.8517
300.7817
300.8379
300.7657
300.7218
300.8508
300.7442
300.8758
300.8262
300.8236
300.8837
300.7648
300.9194
300.7131
300.7569
300.7804
300.6984
300.7838
300.7224
300.7328
300.7891
300.7586
300.8335
300.7638
300.7136
300.8381
300.6943
300.8029
300.7253
300.6736
300.7792
300.6638
300.8100
300.6774
300.7452
300.7937
300.7601
300.8317
300.7572
300.7328
300.7839
300.6949
300.7524
300.6948
300.5988
300.7653
300.6548
300.7844
300.7533
300.7253
300.8212
300.6914
300.8110
300.6576
300.6612
300.7088
300.6358
300.6791
300.6862
300.6571
300.7438
300.7117
300.7762
300.7424
300.6609
300.8288
300.6477
300.7628
300.7055
300.6214
300.7431
300.6530
300.7627
300.6884
300.7214
300.7893
300.7354
300.7731
300.7655
300.7002
300.7867
300.6846
300.7119
300.6982
300.5875
300.7687
300.6206
300.7361
300.7289
300.6951
300.8119
300.6804
300.7705
300.6765
300.6448
300.7077
300.6332
300.6416
300.7021
300.6351
300.7580
300.7076
300.7409
300.7460
300.6425
300.8157
300.6059
300.6998
300.6912
300.6036
300.7312
300.6314
300.6954
300.6763
300.6787
300.7554
300.6918
300.6897
300.7458
300.6315
300.7369
300.6394
300.6271
300.6631
300.5485
300.7217
300.5670
300.6680
300.6935
300.6539
300.7618
300.6464
300.6772
300.6426
300.5842
300.6609
300.5894
300.5558
300.6843
300.5948
300.7283
300.6808
300.6909
300.7350
300.6134
300.7634
300.5610
300.6220
300.6409
300.5584
300.6537
300.5871
300.6017
300.6328
300.6188
300.7006
300.6306
300.5911
300.7094
300.5748
300.6847
300.5967
300.5519
300.6381
300.5305
300.6855
300.5487
300.6278
300.6718
300.6407
300.7284
300.6486
300.6463
300.6769
300.5939
300.6514
300.6061
300.5392
300.7080
300.5996
300.7362
300.6977
300.6783
300.7689
300.6415
300.7724
300.5991
300.6242
300.6499
300.5792
300.6504
300.6323
300.6097
300.6990
300.6617
300.7257
300.6763
300.6015
300.7456
300.5768
300.6863
300.6253
300.5512
300.6712
300.5662
300.6908
300.5950
300.6430
300.7003
300.6580
300.7182
300.6819
300.6214
300.6880
300.5855
300.6314
300.6040
300.5065
300.6880
300.5494
300.6793
300.6636
300.6197
300.7302
300.5893
300.6854
300.5573
300.5384
300.5989
300.5255
300.5441
300.5784
300.5315
300.6455
300.6076
300.6607
300.6338
300.5446
300.7106
300.5116
300.6104
300.5788
300.4959
300.6281
300.5170
300.6165
300.5536
300.5726
300.6416
300.5786
300.5979
300.6194
300.5407
300.6378
300.5344
300.5531
300.5708
300.4515
300.6335
300.4739
300.6079
300.6077
300.5667
300.6873
300.5489
300.6131
300.5382
300.4897
300.5599
300.4853
300.4737
300.5527
300.4924
300.6281
300.5711
300.6069
300.6209
300.5193
300.6925
300.4730
300.5596
300.5550
300.4821
300.6035
300.5157
300.5782
300.5786
300.5795
300.6670
300.5965
300.5867
300.6577
300.5397
300.6466
300.5443
300.5301
300.5770
300.4618
300.6297
300.4752
300.5832
300.6070
300.5593
300.6661
300.5534
300.5862
300.5768
300.5085
300.5728
300.4969
300.4408
300.5682
300.4763
300.6115
300.5697
300.5760
300.6474
300.5319
300.6838
300.4902
300.5443
300.5649
300.4833
300.5729
300.4999
300.5305
300.5798
300.5544
300.6369
300.5702
300.5200
300.6324
300.4856
300.5950
300.4978
300.4469
300.5468
300.4290
300.5823
300.4475
300.5260
300.5686
300.5278
300.6071
300.5184
300.5076
300.5359
300.4580
300.5169
300.4653
300.3963
300.5535
300.4463
300.5874
300.5491
300.5287
300.6203
300.5021
300.6342
300.4592
300.4812
300.5167
300.4389
300.5086
300.4670
300.4535
300.5359
300.4961
300.5640
300.5152
300.4386
300.5833
300.4137
300.5228
300.4560
300.3877
300.4945
300.3861
300.5089
300.4076
300.4633
300.5230
300.4845
300.5401
300.5012
300.4548
300.5292
300.4416
300.4934
300.4556
300.3638
300.5438
300.4040
300.5483
300.5393
300.5015
300.6115
300.4859
300.5916
300.4450
300.4447
300.4946
300.4219
300.4725
300.4855
300.4463
300.5468
300.4988
300.5656
300.5279
300.4301
300.5784
300.3862
300.5017
300.4524
300.3671
300.4896
300.3920
300.4942
300.4300
300.4666
300.5239
300.4730
300.5064
300.5093
300.4330
300.5220
300.4241
300.4440
300.4366
300.3389
300.5273
300.3806
300.5098
300.4985
300.4582
300.5747
300.4444
300.5204
300.4193
300.3919
300.4425
300.3581
300.3701
300.4309
300.3716
300.4843
300.4300
300.4733
300.4577
300.3596
300.5279
300.3183
300.4252
300.4012
300.3241
300.4595
300.3547
300.4379
300.4122
300.4254
300.5028
300.4364
300.4525
300.4863
300.3872
300.4960
300.4024
300.4046
300.4265
300.3107
300.4922
300.3340
300.4589
300.4621
300.4221
300.5360
300.4021
300.4599
300.4079
300.3615
300.4261
300.3401
300.3403
300.4355
300.3622
300.4984
300.4475
300.4736
300.4975
300.3874
300.5551
300.3381
300.4306
300.4309
300.3522
300.4833
300.4114
300.4667
300.4706
300.4714
300.5451
300.4741
300.4683
300.5430
300.4194
300.5308
300.4304
300.4071
300.4615
300.3462
300.5201
300.3737
300.4733
300.5017
300.4659
300.5679
300.4562
300.4804
300.4652
300.3926
300.4602
300.3808
300.3457
300.4779
300.3837
300.5198
300.4721
300.4716
300.5286
300.4139
300.5780
300.3775
300.4358
300.4515
300.3728
300.4689
300.4092
300.4299
300.4715
300.4489
300.5229
300.4583
300.4081
300.5126
300.3719
300.4863
300.3886
300.3516
300.4413
300.3219
300.4755
300.3298
300.4067
300.4470
300.4137
300.5015
300.4157
300.4159
300.4379
300.3566
300.4239
300.3556
300.2808
300.4475
300.3446
300.4738
300.4343
300.4249
300.4980
300.3712
300.5032
300.3103
300.3509
300.3861
300.3190
300.3935
300.3557
300.3463
300.4168
300.3878
300.4603
300.4040
300.3466
300.4798
300.3128
300.4175
300.3439
300.2815
300.3799
300.2579
300.4005
300.2795
300.3458
300.3984
300.3646
300.4328
300.3758
300.3440
300.4110
300.3258
300.3725
300.3225
300.2362
300.4277
300.2991
300.4279
300.4002
300.3789
300.4826
300.3529
300.4721
300.3142
300.3199
300.3682
300.2995
300.3451
300.3401
300.3185
300.4042
300.3569
300.4280
300.3816
300.3034
300.4538
300.2734
300.3806
300.3163
300.2469
300.3654
300.2549
300.3769
300.2854
300.3310
300.4031
300.3635
300.4213
300.3865
300.3344
300.4087
300.3138
300.3605
300.3255
300.2294
300.4227
300.2887
300.4154
300.3925
300.3513
300.4699
300.3380
300.4408
300.3152
300.3021
300.3491
300.2824
300.3224
300.3392
300.2888
300.4021
300.3621
300.4188
300.3831
300.2769
300.4410
300.2412
300.3486
300.3047
300.2075
300.3445
300.2478
300.3554
300.2846
300.3178
300.3880
300.3280
300.3745
300.3683
300.2814
300.3780
300.2838
300.3116
300.3001
300.1949
300.3807
300.2269
300.3633
300.3497
300.3069
300.4330
300.3133
300.3925
300.2871
300.2729
300.3241
300.2389
300.2554
300.3149
300.2455
300.3621
300.3134
300.3520
300.3523
300.2544
300.4183
300.2108
300.3243
300.3024
300.2186
300.3509
300.2581
300.3480
300.3108
300.3337
300.4014
300.3364
300.3627
300.3964
300.2983
300.3986
300.2985
300.3026
300.3163
300.2063
300.3882
300.2284
300.3564
300.3625
300.3203
300.4530
300.3233
300.3913
300.3236
300.2852
300.3367
300.2559
300.2572
300.3390
300.2658
300.4004
300.3489
300.3827
300.4073
300.3031
300.4650
300.2496
300.3492
300.3383
300.2606
300.3852
300.2978
300.3570
300.3549
300.3516
300.4277
300.3629
300.3594
300.4219
300.3031
300.4068
300.3099
300.3068
300.3409
300.2302
300.4183
300.2516
300.3555
300.3786
300.3410
300.4469
300.3202
300.3544
300.3186
300.2517
300.3308
300.2491
300.2229
300.3384
300.2531
300.3884
300.3387
300.3499
300.3778
300.2730
300.4375
300.2267
300.2984
300.3051
300.2161
300.3237
300.2511
300.2892
300.3086
300.2996
300.3768
300.3038
300.2820
300.3732
300.2526
300.3504
300.2525
300.2287
300.2848
300.1678
300.3409
300.1815
300.2828
300.3259
300.2787
300.3841
300.2766
300.2875
300.2857
300.2232
300.2940
300.2191
300.1851
300.3215
300.2289
300.3661
300.3218
300.3247
300.3760
300.2623
300.4110
300.2062
300.2622
300.2778
300.1951
300.2928
300.2414
300.2549
300.2943
300.2718
300.3540
300.2804
300.2359
300.3460
300.1973
300.3043
300.2251
300.1765
300.2526
300.1336
300.2887
300.1495
300.2254
300.2646
300.2349
300.3164
300.2283
300.2300
300.2562
300.1731
300.2275
300.1720
300.1085
300.2583
300.1625
300.3012
300.2693
300.2572
300.3282
300.2077
300.3633
300.1695
300.2075
300.2258
300.1502
300.2456
300.2022
300.2037
300.2492
300.2247
300.3000
300.2427
300.1907
300.3169
300.1698
300.2695
300.1885
300.1499
300.2453
300.1257
300.2784
300.1539
300.2372
300.2688
300.2299
300.3328
300.2586
300.2453
300.2858
300.1940
300.2450
300.1914
300.1213
300.2798
300.1609
300.2997
300.2707
300.2466
300.3362
300.2150
300.3473
300.1684
300.2015
300.2358
300.1570
300.2322
300.1956
300.1855
300.2556
300.2301
300.3019
300.2402
300.1799
300.3144
300.1482
300.2490
300.1854
300.1211
300.2279
300.1344
300.2842
300.1639
300.2279
300.2784
300.2325
300.3085
300.2451
300.2095
300.2550
300.1746
300.2165
300.1694
300.772
300.2492
300.1205
300.2593
300.2288
300.2045
300.3061
300.1831
300.3038
300.1381
300.1541
300.1876
300.1026
300.1654
300.1471
300.1287
300.2200
300.1944
300.2687
300.2115
300.1364
300.2870
300.1200
300.2310
300.1644
300.946
300.2109
300.1146
300.2492
300.1380
300.2023
300.2482
300.1974
300.2589
300.2101
300.1581
300.2241
300.1401
300.1869
300.1513
300.685
300.2363
300.1026
300.2469
300.2181
300.1807
300.2934
300.1775
300.2840
300.1391
300.1437
300.1835
300.1108
300.1604
300.1703
300.1395
300.2373
300.2117
300.2716
300.2282
300.1462
300.2967
300.1148
300.2357
300.1892
300.1133
300.2409
300.1371
300.2552
300.1607
300.2116
300.2690
300.2110
300.2664
300.2319
300.1740
300.2483
300.1562
300.2014
300.1740
300.700
300.2538
300.1154
300.2542
300.2363
300.1989
300.3077
300.1737
300.2780
300.1397
300.1330
300.1806
300.1080
300.1395
300.1723
300.1356
300.2323
300.1881
300.2505
300.2244
300.1368
300.3002
300.1045
300.2104
300.1611
300.858
300.2198
300.1185
300.2221
300.1405
300.1772
300.2425
300.1943
300.2426
300.2373
300.1684
300.2420
300.1442
300.1782
300.1593
300.612
300.2446
300.918
300.2247
300.2228
300.1894
300.3100
300.1812
300.2941
300.1733
300.1611
300.2235
300.1425
300.1626
300.1997
300.1544
300.2660
300.2228
300.2817
300.2565
300.1658
300.3286
300.1171
300.2215
300.1894
300.1130
300.2367
300.1241
300.2183
300.1524
300.1802
300.2441
300.1991
300.2277
300.2348
300.1510
300.2427
300.1336
300.1569
300.1526
300.463
300.2311
300.766
300.2080
300.2099
300.1851
300.3039
300.1790
300.2618
300.1649
300.1425
300.2053
300.1315
300.1425
300.2004
300.1303
300.2428
300.1925
300.2452
300.2446
300.1426
300.3111
300.1036
300.2074
300.1801
300.936
300.2260
300.1262
300.2133
300.1677
300.1789
300.2652
300.2183
300.2347
300.2631
300.1738
300.2578
300.1557
300.1803
300.1800
300.778
300.2716
300.1115
300.2478
300.2489
300.2041
300.3230
300.1931
300.2663
300.1947
300.1553
300.2182
300.1289
300.1383
300.2070
300.1397
300.2679
300.2225
300.2602
300.2581
300.1535
300.3230
300.1069
300.2000
300.1860
300.989
300.2275
300.1270
300.2057
300.1740
300.1846
300.2546
300.1895
300.2010
300.2514
300.1473
300.2570
300.1619
300.1665
300.1928
300.800
300.2658
300.1072
300.2347
300.2355
300.1965
300.3132
300.1961
300.2562
300.1809
300.1369
300.1967
300.1269
300.1050
300.1941
300.1132
300.2406
300.1954
300.2319
300.2449
300.1328
300.2917
300.806
300.1585
300.1496
300.676
300.1835
300.961
300.1607
300.1444
300.1497
300.2279
300.1540
300.1665
300.2312
300.1124
300.2218
300.1405
300.1355
300.1734
300.657
300.2582
300.1040
300.2164
300.2353
300.1985
300.3128
300.1873
300.2355
300.1928
300.1325
300.1989
300.1080
300.857
300.1924
300.1148
300.2374
300.1795
300.2012
300.2360
300.1289
300.2984
300.859
300.1685
300.1654
300.798
300.1896
300.1118
300.1641
300.1778
300.1728
300.2656
300.1961
300.1798
300.2564
300.1361
300.2438
300.1575
300.1361
300.1838
300.761
300.2599
300.989
300.2030
300.2324
300.1943
300.2905
300.1798
300.2210
300.1835
300.1157
300.1880
300.1051
300.628
300.1810
300.937
300.2187
300.1721
300.1889
300.2312
300.1163
300.2700
300.690
300.1398
300.1539
300.729
300.1773
300.1094
300.1578
300.1804
300.1743
300.2603
300.1928
300.1614
300.2638
300.1260
300.2346
300.1421
300.1097
300.1678
300.578
300.2315
300.772
300.1686
300.2081
300.1730
300.2712
300.1663
300.1882
300.1712
300.979
300.1704
300.852
300.355
300.1682
300.812
300.2120
300.1659
300.1705
300.2200
300.1123
300.2816
300.819
300.1441
300.1666
300.929
300.1981
300.1342
300.1550
300.1817
300.1691
300.2516
300.1922
300.1562
300.2601
300.1193
300.2224
300.1260
300.878
300.1601
300.429
300.2079
300.681
300.1589
300.1959
300.1521
300.2458
300.1462
300.1582
300.1589
300.780
300.1548
300.907
300.354
300.1888
300.834
300.2167
300.1861
300.1830
300.2598
300.1376
300.2896
300.924
300.1416
300.1596
300.875
300.1844
300.1236
300.1405
300.1843
300.1617
300.2456
300.1765
300.1286
300.2456
300.927
300.1999
300.1222
300.781
300.1595
300.479
300.2055
300.616
300.1412
300.1744
300.1382
300.2292
300.1344
300.1405
300.1528
300.732
300.1329
300.649
300.94
300.1572
300.598
300.2006
300.1542
300.1422
300.2202
300.1044
300.2477
300.527
300.1072
300.1327
300.560
300.1441
300.916
300.1015
300.1663
300.1422
300.2201
300.1564
300.1061
300.2187
300.686
300.1777
300.1004
300.451
300.1349
300.169
300.1709
300.296
300.1176
300.1566
300.1260
300.2172
300.1297
300.1275
300.1597
300.793
300.1401
300.763
300.55
300.1674
300.652
300.1998
300.1624
300.1390
300.2275
300.1199
300.2532
300.724
300.1100
300.1398
300.598
300.1340
300.931
300.979
300.1643
300.1387
300.2113
300.1413
300.927
300.2137
300.589
300.1696
300.925
300.342
300.1349
300.236
300.1754
300.495
300.1286
300.1777
300.1395
300.2134
300.1389
300.1239
300.1540
300.719
300.1331
300.737
299.9946
300.1697
300.549
300.1889
300.1503
300.1266
300.2151
300.924
300.2199
300.462
300.679
300.1041
300.317
300.1098
300.872
300.830
300.1567
300.1196
300.1846
300.1226
300.617
300.2001
300.333
300.1457
300.795
300.216
300.1173
300.30
300.1578
300.429
300.1052
300.1626
300.1206
300.1920
300.1278
300.1025
300.1465
300.677
300.1302
300.690
299.9893
300.1527
300.381
300.1632
300.1401
300.1179
300.2070
300.857
300.2180
300.390
300.614
300.1029
300.278
300.847
300.675
300.571
300.1235
300.925
300.1718
300.1193
300.548
300.1966
300.331
300.1386
300.732
300.183
300.1323
300.191
300.1487
300.419
300.1089
300.1638
300.1275
300.1925
300.1368
300.1066
300.1470
300.545
300.1054
300.656
299.9819
300.1462
300.332
300.1638
300.1278
300.966
300.1908
300.603
300.1820
300.301
300.385
300.721
299.9929
300.531
300.421
300.232
300.1164
300.811
300.1531
300.973
300.395
300.1928
300.243
300.1341
300.761
300.87
300.1295
300.181
300.1495
300.376
300.1023
300.1662
300.1296
300.2007
300.1502
300.1057
300.1608
300.765
300.1240
300.781
299.9897
300.1710
300.400
300.1712
300.1544
300.1206
300.2324
300.1119
300.2332
300.665
300.799
300.1235
300.456
300.1014
300.971
300.740
300.1640
300.1360
300.2082
300.1559
300.925
300.2439
300.594
300.1673
300.1154
300.376
300.1580
300.583
300.1778
300.757
300.1248
300.1775
300.1289
300.2013
300.1570
300.1004
300.1659
300.787
300.1220
300.795
299.9851
300.1606
300.314
300.1607
300.1374
300.1052
300.2125
300.823
300.2023
300.551
300.545
300.982
300.224
300.686
300.810
300.460
300.1526
300.1274
300.1958
300.1605
300.792
300.2312
300.392
300.1489
300.924
300.135
300.1376
300.277
300.1430
300.475
300.960
300.1447
300.951
300.1539
300.1139
300.562
300.1302
300.425
300.805
300.413
299.9440
300.1254
299.9922
300.1454
300.1246
300.883
300.2148
300.869
300.2034
300.622
300.685
300.1199
300.339
300.824
300.992
300.648
300.1682
300.1286
300.1977
300.1706
300.738
300.2314
300.437
300.1495
300.941
300.85
300.1311
300.214
300.1348
300.561
300.1028
300.1567
300.1041
300.1495
300.1289
300.662
300.1456
300.439
300.888
300.651
299.9720
300.1513
300.134
300.1493
300.1423
300.1062
300.2213
300.943
300.1947
300.708
300.623
300.1226
300.441
300.842
300.1055
300.674
300.1679
300.1273
300.1850
300.1515
300.646
300.2179
300.183
300.1237
300.789
299.9957
300.1217
300.135
300.1172
300.425
300.802
300.1488
300.811
300.1317
300.1265
300.600
300.1351
300.409
300.667
300.495
299.9546
300.1425
299.9924
300.1279
300.1161
300.824
300.1971
300.650
300.1684
300.505
300.381
300.1000
300.193
300.448
300.767
300.291
300.1392
300.1061
300.1700
300.1339
300.395
300.1936
300.5
300.1028
300.640
299.9833
300.1090
300.10
300.1078
300.272
300.573
300.1373
300.832
300.1158
300.1168
300.489
300.1339
300.440
300.760
300.687
299.9658
300.1620
300.272
300.1528
300.1428
300.1092
300.2225
300.957
300.1933
300.858
300.623
300.1194
300.438
300.624
300.989
300.487
300.1577
300.1193
300.1781
300.1467
300.498
300.2256
300.334
300.1230
300.871
300.65
300.1331
300.366
300.1333
300.691
300.1073
300.1905
300.1372
300.1679
300.1797
300.1019
300.1831
300.925
300.1242
300.1082
299.9962
300.1818
300.317
300.1632
300.1559
300.1189
300.2364
300.999
300.1827
300.840
300.576
300.1133
300.307
300.457
300.966
300.418
300.1571
300.1140
300.1626
300.1552
300.475
300.2202
300.197
300.1154
300.990
300.258
300.1469
300.488
300.1472
300.910
300.1169
300.1937
300.1401
300.1631
300.1869
300.1023
300.1842
300.806
300.1113
300.1212
300.78
300.1920
300.399
300.1723
300.1752
300.1387
300.2594
300.1300
300.2054
300.1185
300.761
300.1380
300.574
300.595
300.1264
300.723
300.1887
300.1425
300.1902
300.1884
300.909
300.2518
300.453
300.1456
300.1292
300.513
300.1763
300.809
300.1654
300.1196
300.1334
300.2087
300.1452
300.1705
300.2059
300.1201
300.2167
300.1198
300.1284
300.1345
300.285
300.2160
300.494
300.1772
300.1737
300.1285
300.2393
300.1097
300.1844
300.1125
300.682
300.1336
300.585
300.516
300.1242
300.571
300.1890
300.1467
300.1904
300.1951
300.991
300.2720
300.572
300.1484
300.1378
300.640
300.1982
300.1075
300.1749
300.1525
300.1600
300.2365
300.1726
300.1771
300.2269
300.1311
300.2273
300.1283
300.1372
300.1550
300.458
300.2382
300.728
300.1965
300.2081
300.1653
300.2788
300.1636
300.2289
300.1648
300.1175
300.1954
300.1167
300.1049
300.1973
300.1134
300.2491
300.2016
300.2338
300.2473
300.1517
300.3249
300.1104
300.1939
300.1840
300.1011
300.2225
300.1306
300.1926
300.1840
300.1823
300.2626
300.1962
300.1854
300.2417
300.1252
300.2240
300.1222
300.1233
300.1510
300.362
300.2206
300.703
300.1816
300.2023
300.1592
300.2779
300.1580
300.2037
300.1560
300.1015
300.1602
300.781
300.504
300.1617
300.815
300.2160
300.1745
300.2047
300.2301
300.1195
300.2805
300.623
300.1348
300.1471
300.609
300.1708
300.923
300.1395
300.1373
300.1310
300.2033
300.1412
300.1343
300.2165
300.957
300.1918
300.950
300.760
300.1249
300.125
300.1942
300.398
300.1536
300.1749
300.1342
300.2470
300.1386
300.1882
300.1559
300.1001
300.1687
300.979
300.688
300.1849
300.957
300.2159
300.1757
300.1997
300.2358
300.1249
300.2881
300.853
300.1596
300.1744
300.855
300.1929
300.1173
300.1464
300.1570
300.1490
300.2344
300.1694
300.1452
300.2379
300.1122
300.2146
300.1248
300.1093
300.1762
300.577
300.2402
300.920
300.1988
300.2320
300.1986
300.2960
300.1863
300.2120
300.2049
300.1307
300.2002
300.1374
300.948
300.2288
300.1289
300.2577
300.2136
300.2181
300.2774
300.1573
300.3064
300.969
300.1608
300.1809
300.992
300.1922
300.1250
300.1516
300.1784
300.1627
300.2384
300.1799
300.1456
300.2479
300.1164
300.2268
300.1360
300.1036
300.1859
300.682
300.2379
300.889
300.1806
300.2280
300.1912
300.2890
300.1934
300.1968
300.2103
300.1310
300.1901
300.1242
300.651
300.2002
300.1091
300.2442
300.1887
300.1824
300.2484
300.1340
300.2750
300.847
300.1270
300.1516
300.728
300.1617
300.1020
300.1109
300.1568
300.1359
300.2164
300.1588
300.1184
300.2343
300.1022
300.2150
300.1139
300.770
300.1609
300.492
300.2133
300.748
300.1618
300.1941
300.1589
300.2543
300.1639
300.1562
300.1781
300.963
300.1597
300.914
300.301
300.1822
300.667
300.2011
300.1584
300.1519
300.2207
300.1013
300.2462
300.565
300.1016
300.1248
300.488
300.1397
300.1015
300.1066
300.1704
300.1522
300.2317
300.1713
300.1203
300.2438
300.1015
300.2226
300.1438
300.882
300.1910
300.763
300.2295
300.934
300.1753
300.2134
300.1709
300.2573
300.1712
300.1629
300.2024
300.1226
300.1767
300.1206
300.508
300.2129
300.970
300.2231
300.1789
300.1541
300.2489
300.1262
300.2749
300.946
300.1181
300.1566
300.883
300.1583
300.1224
300.1136
300.1924
300.1585
300.2277
300.1710
300.1166
300.2395
300.848
300.1943
300.1198
300.583
300.1653
300.465
300.1962
300.668
300.1330
300.1791
300.1405
300.2223
300.1510
300.1259
300.1661
300.709
300.1275
300.669
299.9911
300.1578
300.370
300.1699
300.1389
300.1211
300.2290
300.975
300.2305
300.605
300.896
300.1270
300.589
300.1339
300.1051
300.967
300.1738
300.1437
300.2221
300.1699
300.1045
300.2434
300.720
300.1812
300.1200
300.586
300.1682
300.546
300.1902
300.704
300.1288
300.1775
300.1385
300.2113
300.1469
300.1157
300.1654
300.728
300.1297
300.878
300.19
300.1711
300.532
300.1825
300.1552
300.1386
300.2327
300.1145
300.2467
300.739
300.960
300.1390
300.689
300.1264
300.1112
300.904
300.1675
300.1468
300.2252
300.1649
300.969
300.2446
300.767
300.1754
300.1128
300.376
300.1462
300.445
300.1695
300.546
300.1065
300.1711
300.1265
300.1904
300.1433
300.1096
300.1663
300.771
300.1330
300.884
299.9956
300.1650
300.452
300.1733
300.1507
300.1289
300.2403
300.1171
300.2431
300.911
300.981
300.1393
300.659
300.1264
300.1242
300.981
300.1954
300.1556
300.2215
300.1799
300.978
300.2468
300.701
300.1752
300.1188
300.474
300.1570
300.494
300.1747
300.751
300.1161
300.1704
300.1297
300.1875
300.1588
300.1090
300.1793
300.845
300.1362
300.913
300.26
300.1974
300.744
300.2069
300.1876
300.1431
300.2467
300.1225
300.2418
300.977
300.1002
300.1448
300.691
300.1115
300.1209
300.856
300.1820
300.1522
300.2254
300.1838
300.928
300.2491
300.564
300.1646
300.1131
300.320
300.1489
300.398
300.1603
300.767
300.1269
300.1807
300.1239
300.1886
300.1692
300.1078
300.1811
300.872
300.1326
300.1108
300.111
300.1954
300.596
300.2021
300.1871
300.1491
300.2631
300.1319
300.2381
300.1108
300.1115
300.1559
300.705
300.1088
300.1351
300.903
300.1921
300.1504
300.2177
300.1893
300.1033
300.2584
300.645
300.1766
300.1345
300.538
300.1849
300.800
300.1898
300.1154
300.1610
300.2263
300.1811
300.2308
300.2266
300.1592
300.2365
300.1367
300.1603
300.1431
300.302
300.2151
300.669
300.2004
300.1940
300.1537
300.2709
300.1422
300.2478
300.1213
300.1045
300.1622
300.792
300.1055
300.1311
300.730
300.1833
300.1546
300.2100
300.1822
300.876
300.2471
300.520
300.1602
300.1221
300.340
300.1636
300.659
300.1608
300.899
300.1319
300.2009
300.1362
300.1667
300.1704
300.949
300.1824
300.838
300.1012
300.785
299.9789
300.1760
300.252
300.1572
300.1423
300.944
300.2167
300.927
300.1786
300.716
300.444
300.1091
300.292
300.419
300.840
300.244
300.1399
300.967
300.1506
300.1363
300.445
300.2121
300.86
300.1130
300.889
300.32
300.1382
300.382
300.1360
300.830
300.1048
300.1761
300.1158
300.1413
300.1542
300.812
300.1607
300.685
300.942
300.861
299.9668
300.1597
300.100
300.1357
300.1318
300.947
300.2002
300.709
300.1643
300.654
300.378
300.1068
300.205
300.424
300.1028
300.416
300.1483
300.1061
300.1612
300.1487
300.556
300.2259
300.243
300.1338
300.1117
300.344
300.1422
300.364
300.1306
300.768
300.797
300.1554
300.997
300.1207
300.1438
300.525
300.1360
300.433
300.715
300.775
299.9582
300.1521
300.3
300.1236
300.1250
300.853
300.1988
300.639
300.1535
300.639
300.230
300.889
300.117
300.139
300.949
300.332
300.1488
300.996
300.1505
300.1388
300.352
300.2120
300.18
300.953
300.701
299.9882
300.1142
300.68
300.850
300.505
300.675
300.1531
300.906
300.1085
300.1309
300.359
300.1268
300.148
300.261
300.351
299.9236
300.1175
299.9647
300.865
300.915
300.650
300.1799
300.439
300.1292
300.504
300.132
300.839
299.9984
299.9872
300.613
299.9998
300.1298
300.796
300.1305
300.1361
300.275
300.1941
299.9833
300.721
300.618
299.9871
300.1110
300.99
300.886
300.591
300.621
300.1343
300.795
300.930
300.1185
300.266
300.1284
300.258
300.411
300.562
299.9397
300.1201
299.9659
300.861
300.908
300.621
300.1903
300.599
300.1303
300.616
300.144
300.798
299.9983
300.24
300.701
300.92
300.1440
300.771
300.1127
300.1108
300.89
300.1815
299.9743
300.571
300.422
299.9650
300.864
299.9880
300.691
300.310
300.383
300.1188
300.542
300.605
300.914
299.9924
300.860
299.9855
299.9912
300.137
299.9131
300.1016
299.9479
300.667
300.738
300.374
300.1557
300.294
300.1001
300.311
299.9889
300.568
299.9821
299.9794
300.458
299.9755
300.1040
300.545
300.932
300.973
299.9910
300.1471
299.9393
300.367
300.120
299.9365
300.562
299.9530
300.272
300.49
300.170
300.915
300.377
300.530
300.942
299.9916
300.948
299.9982
300.13
300.244
299.9069
300.931
299.9457
300.655
300.802
300.433
300.1637
300.407
300.1021
300.364
299.9934
300.472
299.9659
299.9617
300.464
299.9703
300.985
300.465
300.823
300.950
299.9915
300.1495
299.9491
300.497
300.275
299.9415
300.658
299.9664
300.359
300.122
300.235
300.1006
300.340
300.560
300.1010
300.25
300.1053
300.86
300.59
300.423
299.9361
300.1189
299.9666
300.923
300.984
300.634
300.1722
300.440
300.1031
300.325
299.9863
300.551
299.9740
299.9546
300.394
299.9725
300.1019
300.564
300.898
300.1077
300.16
300.1764
299.9544
300.391
300.296
299.9466
300.716
299.9794
300.560
300.456
300.453
300.1292
300.653
300.683
300.1229
300.272
300.1297
300.249
300.274
300.499
299.9362
300.1302
299.9730
300.859
300.1045
300.600
300.1801
300.536
300.1063
300.434
299.9938
300.593
299.9760
299.9642
300.558
299.9855
300.1115
300.659
300.991
300.1195
300.68
300.1765
299.9691
300.583
300.540
299.9738
300.856
299.9939
300.557
300.449
300.469
300.1271
300.680
300.699
300.1385
300.276
300.1270
300.271
300.162
300.532
299.9382
300.1253
299.9727
300.898
300.1037
300.624
300.1739
300.466
300.1030
300.457
299.9973
300.661
299.9876
299.9720
300.728
300.6
300.1299
300.844
300.1114
300.1354
300.250
300.2015
299.9902
300.820
300.851
300.34
300.1180
300.295
300.894
300.908
300.935
300.1763
300.1128
300.1050
300.1706
300.590
300.1583
300.655
300.619
300.986
299.9763
300.1662
300.128
300.1156
300.1257
300.870
300.2141
300.1018
300.1457
300.991
300.441
300.1053
300.316
300.65
300.1150
300.284
300.1644
300.1264
300.1544
300.1846
300.738
300.2350
300.251
300.1039
300.1114
300.155
300.1296
300.464
300.1025
300.962
300.917
300.1738
300.1083
300.1054
300.1738
300.541
300.1525
300.482
300.289
300.703
299.9544
300.1279
299.9791
300.1016
300.1206
300.780
300.2001
300.824
300.1239
300.957
300.275
300.945
300.167
299.9924
300.1036
300.183
300.1544
300.1036
300.1120
300.1618
300.459
300.2034
299.9943
300.656
300.724
299.9834
300.1063
300.225
300.749
300.929
300.846
300.1600
300.911
300.800
300.1491
300.178
300.1244
300.296
300.130
300.665
299.9504
300.1173
299.9683
300.687
300.863
300.444
300.1650
300.493
300.817
300.662
300.5
300.654
299.9946
299.9612
300.714
299.9827
300.1116
300.602
300.751
300.1245
300.68
300.1579
299.9484
300.212
300.139
299.9272
300.338
299.9685
300.36
300.216
300.67
300.888
300.255
300.125
300.913
299.9764
300.831
299.9868
299.9629
300.277
299.9147
300.845
299.9343
300.458
300.633
300.312
300.1411
300.273
300.645
300.438
299.9801
300.507
299.9769
299.9381
300.619
299.9776
300.1037
300.569
300.690
300.1100
299.9971
300.1532
299.9460
300.87
300.219
299.9503
300.623
299.9779
300.202
300.301
300.180
300.1046
300.372
300.118
300.1024
299.9723
300.774
299.9821
299.9641
300.173
299.9057
300.769
299.9268
300.384
300.655
300.326
300.1464
300.317
300.531
300.467
299.9777
300.425
299.9702
299.9310
300.515
299.9693
300.1117
300.600
300.615
300.995
299.9845
300.1303
299.9300
299.9935
299.9989
299.9266
300.429
299.9664
300.26
300.213
300.178
300.984
300.376
300.215
300.1153
299.9910
300.1012
300.73
299.9768
300.411
299.9204
300.854
299.9394
300.465
300.741
300.402
300.1474
300.443
300.733
300.570
299.9800
300.472
299.9727
299.9305
300.565
299.9597
300.846
300.470
300.643
300.1136
299.9974
300.1545
299.9408
300.19
300.99
299.9397
300.438
299.9687
300.137
300.396
300.244
300.1042
300.382
300.166
300.1075
299.9788
300.958
300.151
299.9918
300.564
299.9401
300.1107
299.9559
300.556
300.847
300.465
300.1463
300.367
300.524
300.377
299.9662
300.234
299.9429
299.9044
300.282
299.9331
300.677
300.145
300.169
300.738
299.9513
300.1041
299.9006
299.9745
299.9882
299.9107
300.165
299.9385
299.9785
300.89
299.9992
300.836
300.65
299.9861
300.818
299.9609
300.758
299.9752
299.9442
300.143
299.9022
300.780
299.9336
300.295
300.552
300.42
300.1116
300.47
300.264
300.177
299.9463
300.94
299.9346
299.8948
300.137
299.9191
300.491
299.9958
299.9958
300.505
299.9448
300.1003
299.8900
299.9588
299.9711
299.8945
300.36
299.9188
299.9557
299.9837
299.9824
300.598
299.9882
299.9665
300.583
299.9321
300.517
299.9530
299.9178
299.9825
299.8659
300.431
299.8917
299.9898
300.98
299.9746
300.819
299.9676
299.9923
299.9812
299.9129
299.9802
299.9128
299.8763
299.9927
299.9041
300.350
299.9844
299.9822
300.384
299.9208
300.837
299.8928
299.9665
299.9664
299.8906
300.85
299.9405
299.9655
299.9841
299.9684
300.458
299.9872
299.9698
300.370
299.9073
300.253
299.9280
299.8939
299.9543
299.8243
299.9916
299.8433
299.9554
299.9779
299.9327
300.424
299.9340
299.9691
299.9562
299.8908
299.9571
299.8916
299.8591
299.9776
299.8801
300.203
299.9773
299.9892
300.385
299.9230
300.919
299.8921
299.9681
299.9690
299.8916
299.9976
299.9216
299.9588
299.9771
299.9617
300.459
299.9793
299.9658
300.520
299.9259
300.337
299.9399
299.9176
299.9711
299.8509
300.223
299.8769
299.9841
300.126
299.9757
300.906
299.9731
300.135
299.9793
299.9068
299.9798
299.9105
299.8843
300.58
299.9235
300.476
299.9995
300.130
300.585
299.9476
300.1088
299.9032
299.9705
299.9858
299.9017
300.74
299.9283
299.9720
299.9898
299.9822
300.550
299.9911
299.9690
300.499
299.9336
300.424
299.9421
299.9139
299.9708
299.8562
300.346
299.8801
299.9865
300.139
299.9711
300.805
299.9554
299.9906
299.9670
299.8970
299.9715
299.8985
299.8616
299.9729
299.8879
300.99
299.9507
299.9524
299.9749
299.8374
299.9826
299.7478
299.7871
299.7590
299.6395
299.7145
299.5882
299.6030
299.5489
299.4862
299.4983
299.3735
299.3037
299.2804
299.1036
299.1239
298.9340
298.8601
298.7821
298.5653
298.6566
298.4106
298.4305
298.3111
298.1671
298.1633
297.9064
297.8919
297.6250
297.4948
297.4161
297.2013
297.1288
296.9513
296.8132
296.7133
296.5200
296.4375
296.2191
296.257
295.9259
295.6517
295.5761
295.2976
295.1386
294.9701
294.6720
294.6639
294.3503
294.2861
294.591
293.8546
293.7112
293.3859
293.3344
292.9375
292.7999
292.5530
292.2609
292.1738
291.8313
291.7559
291.4181
291.2729
291.576
290.7987
290.6902
290.3390
290.1994
289.8264
289.6099
289.3789
289.617
288.9379
288.5987
288.4419
288.1047
287.8998
287.6825
287.3975
287.2567
286.8806
286.7145
286.3202
286.692
285.8237
285.4781
285.3232
284.9528
284.8023
284.4231
284.2373
283.9724
283.6648
283.5019
283.948
282.9619
282.5021
282.3090
282.9
281.6666
281.4483
281.390
280.9295
280.5256
280.3661
280.455
279.7937
279.4880
279.1398
278.9410
278.5535
278.3370
277.9442
277.7033
277.3462
277.802
276.7830
276.5097
276.1987
275.9302
275.6762
275.3417
275.1520
274.7344
274.5674
274.997
273.8923
273.5371
273.2105
272.9348
272.5267
272.3617
271.9930
271.7798
271.4543
271.2170
270.8743
270.6586
270.2586
270.450
269.5935
269.3598
269.454
268.6919
268.4269
268.119
267.8439
267.4722
267.2554
266.9126
266.6684
266.3175
266.1048
265.6901
265.4958
265.187
264.8021
264.4298
264.1105
263.7792
263.4286
263.1750
262.8616
262.5319
262.2490
261.9722
261.6326
261.3851
260.9671
260.7731
260.3481
260.967
259.6974
259.4247
259.261
258.7983
258.3661
258.2015
257.7788
257.5720
257.2266
256.9725
256.6228
256.3905
255.9872
255.8003
255.3213
255.982
254.7022
254.4179
254.430
253.7718
253.3902
253.1924
252.7736
252.5564
252.2119
251.9562
251.5962
251.3456
250.9340
250.7360
250.2626
250.359
249.6244
249.3488
248.9615
248.7146
248.3009
248.1168
247.6954
247.4660
247.1148
246.8557
246.4954
246.2589
245.8184
245.6293
245.2040
244.9138
244.5312
244.2509
243.8735
243.5971
243.1800
242.9601
242.6525
242.2945
242.475
241.7548
241.4642
241.1235
240.8432
240.4540
240.2505
239.7930
239.5453
239.1357
238.8508
238.4482
238.1950
237.7506
237.5628
237.2158
236.8823
236.6095
236.3237
236.332
235.7011
235.4178
235.187
234.8106
234.3495
234.749
233.6728
233.3947
233.26
232.7268
232.3221
232.688
231.7969
231.4041
231.1824
230.8400
230.5720
230.2099
229.9569
229.5328
229.3181
228.9752
228.5750
228.3057
227.9450
227.6338
227.2448
226.9817
226.5404
226.3526
225.9890
225.6462
225.3920
225.842
224.7974
224.4490
224.1869
223.7474
223.5325
223.1705
222.7850
222.5048
222.1452
221.8363
221.4339
221.1708
220.7233
220.5150
220.2001
219.8285
219.5845
219.2449
218.9675
218.6149
218.3384
217.9735
217.6904
217.4418
216.9964
216.7228
216.3232
216.421
215.6801
215.3701
215.568
214.6582
214.4545
214.656
213.7593
213.5022
213.2097
212.9207
212.5641
212.2996
211.9075
211.6579
211.3927
210.9582
210.6862
210.2917
210.156
209.6538
209.3229
209.162
208.5926
208.3925
208.501
207.6983
207.4604
207.1219
206.8525
206.5280
206.2331
205.9379
205.5592
205.3508
204.9401
204.5774
204.2917
203.9255
203.6259
203.2358
202.9494
202.6026
202.2534
202.267
201.6472
201.3135
201.598
200.7377
200.4622
200.1276
199.8310
199.5358
199.1428
198.9207
198.5459
198.1565
197.8856
197.4835
197.2019
196.8352
196.4999
196.1832
195.7419
195.5457
195.2591
194.8803
194.6012
194.2785
194.184
193.7246
193.3701
193.908
192.7514
192.4409
192.2089
191.8007
191.4344
191.1663
190.7883
190.5024
190.1432
189.8097
189.4939
189.644
188.8511
188.5838
188.1849
187.8894
187.6125
187.3163
187.301
186.7087
186.4260
186.1327
185.7211
185.5081
185.2268
184.8035
184.4806
184.1477
183.8179
183.5163
183.1293
182.8294
182.5106
182.874
181.8857
181.6087
181.2145
180.9070
180.6422
180.3386
180.782
179.7705
179.4659
179.1678
178.7832
178.5390
178.2975
177.8851
177.5222
177.2515
176.8748
176.6001
176.2624
175.8688
175.5856
175.2472
174.8650
174.6505
174.3676
173.9965
173.6890
173.4109
173.1039
172.8488
172.5607
172.2487
171.9518
171.6153
171.2961
171.523
170.7142
170.3222
170.55
169.6639
169.3388
169.427
168.6855
168.3365
168.111
167.6341
167.3202
167.801
166.7579
166.3995
166.957
165.8192
165.5287
165.2707
164.9768
164.6422
164.3556
164.534
163.6723
163.4556
163.1983
162.7803
162.4302
162.1389
161.7657
161.4891
161.1675
160.7998
160.4923
160.1435
159.7649
159.4964
159.2551
158.9485
158.5922
158.2789
158.192
157.7151
157.4784
157.1830
156.8569
156.5854
156.2801
155.9126
155.6658
155.4178
155.910
154.7147
154.3824
154.886
153.7340
153.4704
153.1355
152.7759
152.4680
152.1334
151.7714
151.4499
151.2233
150.9469
150.5655
150.2544
149.9836
149.6764
149.4221
149.1473
148.8557
148.5240
148.2441
147.9505
147.5769
147.3537
147.1066
146.7855
146.3960
146.391
145.7434
145.3825
145.1051
144.8034
144.4562
144.951
143.7927
143.4515
143.527
142.8084
142.5577
142.2553
141.8853
141.5696
141.2880
140.9772
140.7104
140.4642
140.1601
139.8365
139.5594
139.2395
138.9282
138.5862
138.3648
138.963
137.7347
137.3722
137.302
136.7384
136.3858
136.1008
135.8027
135.4513
135.802
134.7822
134.4290
134.810
133.7384
133.5380
133.2559
132.9292
132.5906
132.2706
132.10
131.6977
131.4409
131.2093
130.9171
130.6140
130.3154
130.91
129.7151
129.3621
129.1220
128.8897
128.6219
128.2399
127.8964
127.5493
127.2399
126.8955
126.6195
126.3435
126.8
125.6489
125.3136
124.9895
124.6480
124.2758
124.49
123.7786
123.5047
123.1671
122.8357
122.5139
122.2342
121.9428
121.6704
121.4503
121.1708
120.8820
120.5634
120.2750
119.9440
119.6500
119.3010
119.647
118.8334
118.5695
118.2108
117.8440
117.4892
117.1704
116.8479
116.5239
116.2535
115.9616
115.6205
115.2682
114.9228
114.6014
114.2460
113.9066
113.5681
113.3714
113.1079
112.8290
112.4726
112.1558
111.8229
111.5357
111.2496
110.9683
110.7497
110.4988
110.1981
109.9021
109.5849
109.3095
108.9734
108.6830
108.3488
108.982
107.8818
107.6071
107.3016
106.9227
106.5829
106.2182
105.9070
105.5801
105.2660
104.9980
104.7194
104.3812
104.460
103.7002
103.3812
103.282
102.6766
102.3443
102.205
101.8130
101.5656
101.2818
100.9627
100.6241
100.3170
99.9848
99.7048
99.4209
99.1462
98.9208
98.6918
98.4021
98.1090
97.8052
97.5064
97.2271
96.8912
96.5993
96.2786
95.9973
95.7970
95.5377
95.2631
94.9358
94.5769
94.2354
93.8721
93.5509
93.2410
92.9189
92.6376
92.3729
92.826
91.7403
91.3921
91.476
90.7078
90.3884
90.248
89.6910
89.3650
89.525
88.8295
88.5947
88.3031
88.116
87.6662
87.3401
87.313
86.6968
86.4021
86.1255
85.8468
85.6011
85.3707
85.1387
84.8610
84.5642
84.2717
83.9717
83.6734
83.3668
83.353
82.7418
82.4481
82.1471
81.9311
81.7166
81.4417
81.1497
80.8219
80.4651
80.1359
79.8050
79.4431
79.1162
78.8025
78.4792
78.1919
77.9215
77.6557
77.3599
77.229
76.6810
76.3331
75.9840
75.6473
75.3090
74.9341
74.5850
74.2658
73.9457
73.6767
73.4524
73.2248
72.9442
72.6598
72.3562
72.297
71.7135
71.4011
71.774
70.7503
70.4573
70.1768
69.9027
69.6509
69.4193
69.1910
68.9547
68.6822
68.3909
68.997
67.8024
67.5020
67.1961
66.9057
66.5799
66.2723
66.7
65.7332
65.4594
65.2248
65.241
64.8241
64.5867
64.3242
64.599
63.7622
63.4539
63.1525
62.8707
62.5783
62.2695
61.9940
61.7492
61.5100
61.2916
61.941
60.9136
60.7345
60.5508
60.3449
60.1160
59.8792
59.6487
59.4190
59.1964
58.9777
58.7615
58.5277
58.2948
58.904
57.9214
57.7635
57.6149
57.5117
57.4407
57.3654
57.2587
57.1282
56.9941
56.8561
56.7046
56.5583
56.4268
56.3042
56.1677
56.286
55.9145
55.8351
55.7655
55.7137
55.6743
55.6601
55.6472
55.6238
55.5942
55.5358
55.4566
55.3851
55.3069
55.2349
55.1574
55.759
55.20
54.9138
54.8188
54.7520
54.7110
54.6852
54.6556
54.6574
54.6825
54.7090
54.7159
54.6957
54.6553
54.6052
54.5236
54.4412
54.3591
54.2835
54.2016
54.1042
54.113
53.9426
53.8960
53.8634
53.8367
53.8202
53.8214
53.8260
53.8284
53.8094
53.7714
53.7048
53.6371
53.5673
53.4974
53.4341
53.3771
53.3256
53.2588
53.1779
53.1142
53.850
53.748
53.766
53.900
53.1349
53.1973
53.2496
53.2706
53.2685
53.2613
53.2392
53.2017
53.1801
53.1655
53.1473
53.1262
53.927
53.702
53.743
53.938
53.1233
53.1750
53.2421
53.3163
53.3968
53.4701
53.5204
53.5396
53.5505
53.5610
53.5687
53.5782
53.5812
53.5809
53.5809
53.5559
53.5329
53.5325
53.5550
53.5913
53.6279
53.6968
53.7779
53.8594
53.9163
53.9380
53.9526
53.9445
53.9126
53.8735
53.8443
53.8139
53.7772
53.7241
53.6759
53.6577
53.6528
53.6557
53.6719
53.7062
53.7551
53.8019
53.8422
53.8614
53.8497
53.8246
53.7964
53.7615
53.7297
53.7049
53.6738
53.6476
53.5906
53.5287
53.4929
53.4876
53.5003
53.5208
53.5697
53.6490
53.7293
53.7994
53.8388
53.8604
53.8738
53.8703
53.8624
53.8638
53.8785
53.8828
53.8721
53.8645
53.8752
53.9095
53.9526
54.134
54.908
54.1815
54.2757
54.3706
54.4380
54.4797
54.5007
54.5187
54.5312
54.5475
54.5599
54.5658
54.5753
54.5565
54.5498
54.5659
54.6078
54.6583
54.7076
54.7944
54.8881
54.9875
55.474
55.753
55.977
55.992
55.787
55.482
55.284
55.67
54.9764
54.9297
54.8909
54.8827
54.8867
54.8909
54.9152
54.9595
55.49
55.456
55.802
55.847
55.606
55.342
54.9997
54.9759
54.9458
54.9154
54.9060
54.8718
54.8261
54.7983
54.7901
54.8039
54.8267
54.8676
54.9445
55.296
55.937
55.1233
55.1427
55.1490
55.1324
55.1097
55.1128
55.1164
55.1210
55.1014
55.911
55.1079
55.1470
55.1895
55.2524
55.3357
55.4336
55.5320
55.6223
55.6816
55.7080
55.7318
55.7528
55.7667
55.7817
55.7838
55.7933
55.7862
55.7570
55.7501
55.7763
55.8150
55.8518
55.9164
56.41
56.913
56.1526
56.1809
56.1957
56.1957
56.1708
56.1385
56.1169
56.971
56.570
56.114
55.9732
55.9635
55.9622
55.9743
55.9933
56.374
56.861
56.1325
56.1570
56.1486
56.1262
56.949
56.627
56.262
55.9958
55.9628
55.9270
55.8717
55.8141
55.7843
55.7825
55.7998
55.8169
55.8778
55.9664
56.528
56.1025
56.1271
56.1463
56.1512
56.1400
56.1306
56.1319
56.1301
56.1204
56.1027
56.1066
56.1341
56.1648
56.2198
56.2807
56.3735
56.4607
56.5420
56.6086
56.6321
56.6513
56.6674
56.6807
56.6924
56.6948
56.7037
56.6984
56.6760
56.6657
56.6864
56.7207
56.7559
56.8125
56.8979
56.9872
57.511
57.783
57.887
57.874
57.516
57.132
56.9911
56.9564
56.9154
56.8563
56.8144
56.8058
56.8036
56.8128
56.8326
56.8778
56.9245
56.9576
56.9805
56.9622
56.9302
56.9003
56.8687
56.8338
56.8036
56.7668
56.7325
56.6746
56.6294
56.6111
56.6092
56.6212
56.6463
56.7107
56.7989
56.8610
56.8967
56.9112
56.9129
56.8945
56.8627
56.8535
56.8532
56.8419
56.8206
56.8129
56.8385
56.8735
56.9247
56.9862
57.748
57.1617
57.2480
57.3182
57.3530
57.3631
57.3781
57.3846
57.3945
57.4011
57.4073
57.4063
57.3741
57.3653
57.3823
57.4139
57.4488
57.4977
57.5824
57.6775
57.7379
57.7693
57.7780
57.7821
57.7544
57.7179
57.6886
57.6540
57.6144
57.5615
57.5308
57.5190
57.5105
57.5145
57.5340
57.5762
57.6135
57.6475
57.6480
57.6261
57.5837
57.5554
57.5173
57.4801
57.4415
57.4188
57.3758
57.3105
57.2723
57.2704
57.2809
57.2954
57.3487
57.4230
57.5018
57.5464
57.5669
57.5811
57.5770
57.5572
57.5459
57.5468
57.5379
57.5097
57.4836
57.4835
57.5015
57.5237
57.5648
57.6324
57.7204
57.8030
57.8794
57.9337
57.9559
57.9671
57.9853
57.9947
58.4
58.38
58.93
57.9828
57.9610
57.9637
57.9923
58.209
58.573
58.1262
58.2102
58.2835
58.3218
58.3275
58.3283
58.3002
58.2570
58.2322
58.1980
58.1633
58.986
58.554
58.475
58.404
58.501
58.622
58.1087
58.1507
58.1918
58.2042
58.1848
58.1504
58.1171
58.846
58.460
58.43
57.9724
57.9184
57.8506
57.7981
57.7834
57.7862
57.7946
57.8409
57.9146
57.9959
58.409
58.624
58.735
58.675
58.446
58.280
58.246
58.146
57.9890
57.9613
57.9713
57.9945
58.318
58.842
58.1530
58.2386
58.3223
58.3972
58.4361
58.4536
58.4652
58.4708
58.4720
58.4666
58.4618
58.4619
58.4314
58.4083
58.4169
58.4476
58.4746
58.5242
58.6089
58.6989
58.7635
58.7883
58.7963
58.7939
58.7648
58.7172
58.6875
58.6408
58.5821
58.5235
58.4890
58.4716
58.4652
58.4728
58.4985
58.5267
58.5572
58.5814
58.5733
58.5388
58.4999
58.4621
58.4206
58.3760
58.3348
58.2987
58.2243
58.1677
58.1396
58.1340
58.1387
58.1583
58.2265
58.3062
58.3710
58.3955
58.4063
58.4052
58.3882
58.3610
58.3485
58.3348
58.3213
58.2854
58.2809
58.2999
58.3301
58.3701
58.4283
58.5105
58.5929
58.6675
58.7278
58.7507
58.7572
58.7719
58.7760
58.7803
58.7775
58.7865
58.7624
58.7349
58.7363
58.7638
58.7911
58.8227
58.8908
58.9688
59.328
59.582
59.676
59.659
59.394
58.9848
58.9553
58.9219
58.8858
58.8294
58.7977
58.7869
58.7795
58.7866
58.8051
58.8414
58.8795
58.9047
58.9065
58.8735
58.8315
58.7941
58.7469
58.7034
58.6642
58.6257
58.5604
58.4990
58.4657
58.4541
58.4509
58.4702
58.5294
58.6103
58.6717
58.7005
58.7070
58.7085
58.7008
58.6721
58.6597
58.6537
58.6449
58.6175
58.6159
58.6331
58.6619
58.7039
58.7598
58.8349
58.9138
58.9840
59.351
59.551
59.597
59.634
59.717
59.706
59.743
59.852
59.664
59.448
59.492
59.769
59.1025
59.1385
59.2133
59.3030
59.3648
59.3901
59.3965
59.3904
59.3475
59.2989
59.2655
59.2281
59.1754
59.1137
59.714
59.573
59.493
59.403
59.637
59.955
59.1283
59.1515
59.1463
59.1103
59.693
59.261
58.9830
58.9430
58.9052
58.8714
58.8086
58.7535
58.7259
58.7196
58.7215
58.7370
58.7951
58.8740
58.9206
58.9353
58.9340
58.9353
58.9098
58.8884
58.8755
58.8692
58.8521
58.8221
58.8243
58.8512
58.8834
58.9287
58.9970
59.724
59.1476
59.2100
59.2498
59.2571
59.2596
59.2640
59.2694
59.2723
59.2758
59.2730
59.2356
59.2126
59.2295
59.2614
59.2856
59.3274
59.3985
59.4797
59.5275
59.5415
59.5443
59.5299
59.4900
59.4475
59.4178
59.3805
59.3338
59.2863
59.2708
59.2580
59.2541
59.2609
59.2915
59.3254
59.3469
59.3544
59.3269
59.2749
59.2294
59.1837
59.1405
59.972
59.720
59.292
58.9578
58.9146
58.9049
58.9058
58.9107
58.9540
59.370
59.1111
59.1488
59.1626
59.1683
59.1561
59.1265
59.1078
59.968
59.766
59.421
59.178
59.240
59.480
59.834
59.1314
59.2060
59.2830
59.3580
59.4078
59.4296
59.4380
59.4491
59.4495
59.4489
59.4429
59.4477
59.4357
59.4055
59.4038
59.4258
59.4485
59.4748
59.5376
59.6245
59.6942
59.7180
59.7184
59.7097
59.6752
59.6228
59.5827
59.5426
59.4909
59.4258
59.3821
59.3703
59.3648
59.3675
59.3874
59.4233
59.4593
59.4864
59.4898
59.4516
59.4083
59.3693
59.3214
59.2799
59.2344
59.1963
59.1279
59.576
59.249
59.215
59.229
59.378
59.1022
59.1837
59.2370
59.2542
59.2550
59.2566
59.2330
59.2100
59.1957
59.1855
59.1669
59.1418
59.1446
59.1682
59.2030
59.2498
59.3225
59.4023
59.4827
59.5474
59.5815
59.5786
59.5840
59.5910
59.5825
59.5786
59.5795
59.5742
59.5432
59.5246
59.5410
59.5666
59.5874
59.6392
59.7161
59.7928
59.8354
59.8449
59.8413
59.8074
59.7589
59.7166
59.6789
59.6394
59.5766
59.5269
59.5034
59.4861
59.4770
59.4812
59.5123
59.5436
59.5798
59.5828
59.5508
59.4991
59.4556
59.4096
59.3637
59.3254
59.3017
59.2400
59.1769
59.1374
59.1266
59.1247
59.1349
59.1909
59.2621
59.3261
59.3525
59.3523
59.3499
59.3261
59.3004
59.2897
59.2793
59.2606
59.2252
59.2175
59.2396
59.2696
59.3131
59.3753
59.4497
59.5269
59.5939
59.6365
59.6511
59.6589
59.6692
59.6741
59.6758
59.6737
59.6746
59.6502
59.6245
59.6311
59.6490
59.6663
59.7019
59.7735
59.8569
59.9061
59.9206
59.9179
59.9043
59.8575
59.8163
59.7858
59.7449
59.6930
59.6434
59.6186
59.6122
59.6036
59.6166
59.6454
59.6782
59.7104
59.7146
59.6902
59.6467
59.5988
59.5501
59.4973
59.4517
59.4201
59.3683
59.2923
59.2451
59.2266
59.2230
59.2250
59.2685
59.3426
59.4137
59.4477
59.4586
59.4643
59.4479
59.4152
59.3955
59.3878
59.3762
59.3441
59.3291
59.3444
59.3662
59.4004
59.4576
59.5296
59.6084
59.6740
59.7182
59.7328
59.7385
59.7468
59.7464
59.7501
59.7420
59.7430
59.7126
59.6881
59.6951
59.7127
59.7376
59.7764
59.8586
59.9475
60.11
60.214
60.200
60.79
59.9570
59.9155
59.8807
59.8385
59.7761
59.7156
59.6845
59.6735
59.6672
59.6716
59.7019
59.7350
59.7656
59.7761
59.7573
59.7192
59.6815
59.6399
59.6018
59.5574
59.5230
59.4733
59.4083
59.3562
59.3370
59.3349
59.3387
59.3872
59.4629
59.5272
59.5526
59.5643
59.5599
59.5448
59.5050
59.4901
59.4800
59.4594
59.4277
59.4157
59.4364
59.4710
59.5106
59.5737
59.6518
59.7317
59.8035
59.8508
59.8659
59.8658
59.8702
59.8733
59.8653
59.8599
59.8610
59.8239
59.7861
59.7800
59.8020
59.8210
59.8470
59.9041
59.9847
60.411
60.614
60.610
60.493
60.93
59.9672
59.9390
59.9105
59.8609
59.8031
59.7736
59.7587
59.7500
59.7553
59.7814
59.8034
59.8323
59.8352
59.8075
59.7523
59.7054
59.6656
59.6095
59.5656
59.5240
59.4725
59.4024
59.3545
59.3308
59.3350
59.3375
59.3845
59.4585
59.5295
59.5659
59.5774
59.5807
59.5665
59.5369
59.5243
59.5189
59.4990
59.4660
59.4452
59.4525
59.4716
59.4978
59.5422
59.6185
59.6909
59.7615
59.8059
59.8245
59.8319
59.8351
59.8408
59.8447
59.8461
59.8493
59.8173
59.7919
59.7951
59.8225
59.8408
59.8795
59.9560
60.348
60.949
60.1109
60.1160
60.999
60.544
60.81
59.9737
59.9322
59.8788
59.8235
59.7944
59.7762
59.7746
59.7784
59.8055
59.8464
59.8805
59.8941
59.8715
59.8342
59.7960
59.7607
59.7161
59.6747
59.6422
59.5785
59.5075
59.4537
59.4346
59.4299
59.4334
59.4781
59.5495
59.6202
59.6533
59.6647
59.6627
59.6472
59.6135
59.5968
59.5826
59.5693
59.5345
59.5240
59.5409
59.5651
59.6010
59.6571
59.7281
59.8099
59.8841
59.9324
59.9416
59.9380
59.9419
59.9379
59.9275
59.9176
59.9094
59.8777
59.8483
59.8527
59.8713
59.8939
59.9320
60.202
60.1049
60.1616
60.1826
60.1880
60.1748
60.1273
60.777
60.423
59.9989
59.9392
59.8805
59.8530
59.8374
59.8271
59.8294
59.8567
59.8871
59.9097
59.9152
59.8939
59.8482
59.8056
59.7575
59.7103
59.6747
59.6376
59.5844
59.5187
59.4744
59.4672
59.4602
59.4620
59.5045
59.5871
59.6501
59.6765
59.6906
59.6877
59.6692
59.6412
59.6259
59.6152
59.5984
59.5650
59.5547
59.5710
59.5988
59.6359
59.6958
59.7738
59.8578
59.9247
59.9698
59.9816
59.9971
60.58
60.94
60.89
60.58
60.33
59.9656
59.9452
59.9516
59.9695
59.9871
60.335
60.1104
60.1949
60.2380
60.2532
60.2531
60.2397
60.1880
60.1407
60.1019
60.719
60.65
59.9491
59.9309
59.9205
59.9197
59.9298
59.9590
59.9902
60.187
60.239
59.9945
59.9575
59.9183
59.8676
59.8213
59.7759
59.7340
59.6645
59.5900
59.5485
59.5282
59.5199
59.5325
59.5924
59.6709
59.7288
59.7499
59.7644
59.7661
59.7455
59.7203
59.7089
59.6969
59.6740
59.6394
59.6296
59.6450
59.6682
59.7097
59.7630
59.8331
59.9105
59.9777
60.75
60.85
60.121
60.162
60.107
60.58
60.43
59.9896
59.9541
59.9409
59.9493
59.9731
60.20
60.526
60.1317
60.2087
60.2507
60.2666
60.2570
60.2331
60.1844
60.1417
60.1024
60.543
59.9853
59.9361
59.9088
59.8858
59.8775
59.8914
59.9211
59.9530
59.9728
59.9711
59.9392
59.8941
59.8527
59.8094
59.7657
59.7208
59.6835
59.6166
59.5542
59.5242
59.5184
59.5200
59.5382
59.6001
59.6779
59.7293
59.7425
59.7482
59.7412
59.7154
59.6863
59.6755
59.6549
59.6273
59.5940
59.5994
59.6267
59.6635
59.7081
59.7782
59.8580
59.9358
59.9986
60.387
60.445
60.502
60.567
60.524
60.435
60.425
60.213
59.9838
59.9654
59.9783
59.9977
60.155
60.759
60.1553
60.2170
60.2453
60.2537
60.2450
60.2145
60.1701
60.1326
60.913
60.420
59.9803
59.9370
59.9212
59.9011
59.8969
59.9114
59.9386
59.9675
59.9918
59.9832
59.9331
59.8869
59.8410
59.7997
59.7545
59.7229
59.6805
59.6056
59.5438
59.5131
59.5040
59.5068
59.5331
59.6071
59.6764
59.7211
59.7345
59.7420
59.7361
59.7073
59.6866
59.6707
59.6543
59.6254
59.5982
59.6058
59.6298
59.6596
59.7104
59.7761
59.8522
59.9263
59.9833
60.129
60.228
60.411
60.468
60.447
60.453
60.452
60.238
59.9968
59.9955
60.165
60.448
60.777
60.1531
60.2398
60.3049
60.3259
60.3227
60.3181
60.2779
60.2311
60.1995
60.1542
60.922
60.315
60.10
59.9880
59.9803
59.9869
60.193
60.566
60.903
60.1095
60.1017
60.626
60.281
59.9891
59.9485
59.8979
59.8574
59.8064
59.7302
59.6750
59.6469
59.6343
59.6370
59.6770
59.7521
59.8154
59.8480
59.8543
59.8523
59.8350
59.8015
59.7750
59.7581
59.7412
59.7013
59.6840
59.7024
59.7317
59.7678
59.8261
59.9034
59.9740
60.381
60.772
60.894
60.851
60.816
60.778
60.634
60.578
60.506
60.194
59.9959
60.43
60.252
60.450
60.831
60.1622
60.2426
60.2826
60.2950
60.2961
60.2780
60.2327
60.1912
60.1602
60.1187
60.551
59.9988
59.9773
59.9620
59.9546
59.9572
59.9860
60.182
60.521
60.568
60.276
59.9858
59.9471
59.8980
59.8512
59.8070
59.7801
59.7182
59.6539
59.6109
59.6042
59.5987
59.6106
59.6656
59.7421
59.8004
59.8276
59.8330
59.8360
59.8081
59.7722
59.7635
59.7547
59.7322
59.6929
59.6887
59.7031
59.7257
59.7614
59.8201
59.8961
59.9722
60.467
60.793
60.841
60.950
60.1005
60.1015
60.982
60.981
60.893
60.578
60.296
60.391
60.550
60.776
60.1236
60.2022
60.2671
60.3066
60.3111
60.3048
60.2732
60.2314
60.1857
60.1552
60.1131
60.507
60.33
59.9858
59.9835
59.9836
59.9938
60.279
60.531
60.766
60.713
60.353
59.9921
59.9468
59.8960
59.8354
59.7915
59.7474
59.6794
59.6144
59.5852
59.5693
59.5624
59.5741
59.6376
59.7182
59.7666
59.7871
59.7858
59.7808
59.7502
59.7222
59.7147
59.7052
59.6813
59.6623
59.6667
59.6896
59.7179
59.7597
59.8338
59.9066
59.9791
60.400
60.562
60.550
60.562
60.627
60.607
60.514
60.506
60.320
59.9979
59.9867
60.135
60.388
60.618
60.1339
60.2230
60.2974
60.3342
60.3381
60.3292
60.2866
60.2350
60.2064
60.1627
60.1153
60.517
60.105
59.9918
59.9757
59.9762
59.9934
60.271
60.535
60.734
60.621
60.280
59.9909
59.9411
59.9073
59.8619
59.8323
59.7878
59.7260
59.6746
59.6475
59.6395
59.6378
59.6725
59.7405
59.8037
59.8384
59.8470
59.8474
59.8290
59.7910
59.7656
59.7606
59.7506
59.7246
59.7084
59.7273
59.7476
59.7887
59.8373
59.9218
59.9982
60.773
60.1221
60.1410
60.1451
60.1499
60.1543
60.1578
60.1489
60.1519
60.1188
60.837
60.793
60.953
60.1142
60.1407
60.2036
60.2835
60.3307
60.3499
60.3552
60.3497
60.3079
60.2691
60.2363
60.2037
60.1514
60.992
60.789
60.637
60.571
60.652
60.899
60.1201
60.1489
60.1547
60.1281
60.703
60.279
59.9801
59.9292
59.8786
59.8427
59.7810
59.7166
59.6719
59.6567
59.6599
59.6667
59.7156
59.7942
59.8556
59.8808
59.8883
59.8898
59.8677
59.8405
59.8236
59.8140
59.7972
59.7550
59.7402
59.7479
59.7784
59.8183
59.8696
59.9406
60.118
60.803
60.1148
60.1211
60.1280
60.1358
60.1415
60.1427
60.1431
60.1355
60.1076
60.901
60.995
60.1171
60.1361
60.1862
60.2650
60.3381
60.3734
60.3791
60.3742
60.3430
60.2821
60.2409
60.2138
60.1677
60.1078
60.618
60.458
60.331
60.290
60.417
60.731
60.1050
60.1311
60.1369
60.1043
60.598
60.157
59.9675
59.9251
59.8848
59.8551
59.7915
59.7290
59.6908
59.6784
59.6656
59.6728
59.7340
59.8021
59.8510
59.8595
59.8533
59.8432
59.8114
59.7884
59.7810
59.7706
59.7491
59.7170
59.7250
59.7475
59.7679
59.8067
59.8744
59.9433
60.176
60.763
60.967
60.966
60.1007
60.1050
60.1046
60.1004
60.1068
60.936
60.688
60.615
60.716
60.961
60.1164
60.1831
60.2656
60.3360
60.3617
60.3754
60.3693
60.3321
60.2850
60.2587
60.2171
60.1670
60.1074
60.724
60.543
60.363
60.330
60.486
60.803
60.1057
60.1205
60.1041
60.604
60.182
59.9704
59.9296
59.8894
59.8457
59.8047
59.7372
59.6858
59.6614
59.6553
59.6587
59.6896
59.7633
59.8310
59.8681
59.8758
59.8765
59.8615
59.8343
59.8144
59.8014
59.7890
59.7612
59.7456
59.7563
59.7865
59.8152
59.8631
59.9334
60.125
60.793
60.1244
60.1386
60.1477
60.1483
60.1525
60.1523
60.1485
60.1552
60.1291
60.1059
60.1106
60.1334
60.1535
60.1809
60.2464
60.3177
60.3578
60.3765
60.3744
60.3599
60.3127
60.2699
60.2384
60.1968
60.1390
60.810
60.511
60.432
60.378
60.423
60.679
60.967
60.1222
60.1240
60.971
60.500
60.118
59.9604
59.9160
59.8656
59.8267
59.7665
59.6905
59.6428
59.6240
59.6100
59.6084
59.6508
59.7187
59.7856
59.8145
59.8214
59.8207
59.8058
59.7773
59.7617
59.7508
59.7323
59.6994
59.6925
59.7103
59.7342
59.7704
59.8308
59.9073
59.9778
60.417
60.772
60.880
60.983
60.995
60.958
60.869
60.811
60.838
60.468
60.224
60.350
60.575
60.861
60.1367
60.2206
60.3028
60.3481
60.3612
60.3603
60.3370
60.2859
60.2438
60.2106
60.1664
60.1059
60.507
60.328
60.172
60.148
60.155
60.525
60.814
60.1099
60.1139
60.778
60.315
59.9968
59.9604
59.9221
59.8836
59.8505
59.7897
59.7234
59.6882
59.6787
59.6728
59.6874
59.7435
59.8190
59.8709
59.8899
59.8829
59.8792
59.8460
59.8142
59.7996
59.7827
59.7584
59.7272
59.7299
59.7501
59.7804
59.8211
59.8846
59.9608
60.325
60.952
60.1237
60.1243
60.1237
60.1219
60.1161
60.1158
60.1180
60.988
60.648
60.469
60.596
60.726
60.870
60.1447
60.2226
60.2878
60.3095
60.3165
60.3086
60.2754
60.2278
60.1907
60.1603
60.1146
60.546
60.215
60.63
59.9980
59.9908
60.68
60.367
60.642
60.819
60.641
60.210
59.9747
59.9317
59.8853
59.8473
59.8057
59.7619
59.6969
59.6377
59.6108
59.6020
59.5989
59.6278
59.6989
59.7764
59.8246
59.8434
59.8541
59.8465
59.8171
59.7986
59.7915
59.7776
59.7507
59.7297
59.7380
59.7578
59.7813
59.8258
59.8972
59.9704
60.421
60.959
60.1204
60.1344
60.1485
60.1504
60.1494
60.1502
60.1581
60.1285
60.995
60.1003
60.1164
60.1361
60.1665
60.2400
60.3213
60.3811
60.3933
60.3946
60.3795
60.3289
60.2879
60.2493
60.2088
60.1434
60.824
60.512
60.284
60.152
60.129
60.384
60.748
60.1027
60.1201
60.1041
60.644
60.249
59.9785
59.9367
59.8851
59.8442
59.7888
59.7108
59.6581
59.6374
59.6287
59.6292
59.6661
59.7304
59.7948
59.8159
59.8221
59.8166
59.7935
59.7598
59.7448
59.7311
59.7094
59.6775
59.6677
59.6871
59.7149
59.7522
59.8093
59.8945
59.9628
60.328
60.772
60.917
60.955
60.1027
60.1028
60.1061
60.980
60.952
60.559
60.323
60.393
60.626
60.786
60.1160
60.1939
60.2769
60.3219
60.3406
60.3465
60.3303
60.2845
60.2401
60.2023
60.1599
60.935
60.408
60.166
60.18
59.9935
60.51
60.308
60.616
60.855
60.906
60.587
60.48
59.9594
59.9192
59.8830
59.8416
59.8090
59.7464
59.6834
59.6484
59.6310
59.6326
59.6469
59.7013
59.7750
59.8275
59.8508
59.8507
59.8472
59.8256
59.7938
59.7795
59.7635
59.7354
59.6981
59.6960
59.7091
59.7349
59.7766
59.8437
59.9216
59.9994
60.606
60.965
60.1068
60.1142
60.1229
60.1241
60.1210
60.1266
60.1132
60.731
60.547
60.656
60.806
60.1007
60.1534
60.2328
60.3002
60.3373
60.3407
60.3408
60.3114
60.2608
60.2254
60.1840
60.1414
60.723
60.301
60.111
59.9956
59.9967
60.159
60.494
60.793
60.996
60.960
60.597
60.176
59.9767
59.9317
59.8836
59.8479
59.8097
59.7345
59.6735
59.6439
59.6352
59.6304
59.6608
59.7349
59.8038
59.8452
59.8616
59.8644
59.8563
59.8279
59.8010
59.7937
59.7764
59.7403
59.7171
59.7211
59.7425
59.7761
59.8219
59.8873
59.9671
60.459
60.1107
60.1253
60.1274
60.1345
60.1400
60.1306
60.1193
60.1200
60.890
60.639
60.658
60.848
60.1126
60.1434
60.2128
60.2991
60.3590
60.3795
60.3842
60.3766
60.3287
60.2746
60.2306
60.1811
60.1253
60.637
60.235
60.57
59.9913
59.9825
60.63
60.314
60.637
60.750
60.545
60.107
59.9684
59.9220
59.8809
59.8366
59.8010
59.7478
59.6724
59.6219
59.5991
59.5924
59.5948
59.6305
59.7012
59.7667
59.7925
59.7952
59.7950
59.7751
59.7415
59.7230
59.7099
59.6893
59.6468
59.6326
59.6438
59.6726
59.7102
59.7646
59.8402
59.9089
59.9923
60.368
60.540
60.553
60.604
60.640
60.620
60.611
60.562
60.177
59.9904
59.9925
60.108
60.242
60.660
60.1407
60.2218
60.2712
60.2862
60.2858
60.2623
60.2204
60.1767
60.1462
60.1002
60.424
59.9829
59.9578
59.9398
59.9280
59.9311
59.9624
59.9944
60.208
60.252
59.9956
59.9495
59.9053
59.8601
59.8045
59.7619
59.7265
59.6646
59.5858
59.5377
59.5233
59.5187
59.5284
59.5813
59.6534
59.7219
59.7494
59.7654
59.7721
59.7558
59.7292
59.7228
59.7061
59.6895
59.6480
59.6378
59.6538
59.6762
59.7063
59.7720
59.8497
59.9264
59.9962
60.325
60.340
60.381
60.442
60.424
60.365
60.358
60.311
59.9982
59.9812
59.9868
60.108
60.315
60.832
60.1659
60.2465
60.2903
60.3064
60.3002
60.2710
60.2181
60.1714
60.1287
60.865
60.115
59.9622
59.9394
59.9270
59.9212
59.9293
59.9614
60.19
60.335
60.293
59.9977
59.9573
59.9189
59.8776
59.8349
59.7945
59.7617
59.6960
59.6338
59.5900
59.5720
59.5681
59.5796
59.6372
59.7118
59.7653
59.7793
59.7853
59.7777
59.7491
59.7259
59.7168
59.7089
59.6862
59.6614
59.6683
59.6964
59.7333
59.7828
59.8553
59.9339
60.170
60.859
60.1214
60.1278
60.1395
60.1451
60.1447
60.1349
60.1372
60.1189
60.782
60.656
60.870
60.1057
60.1237
60.1932
60.2791
60.3482
60.3861
60.3980
60.3916
60.3664
60.3213
60.2812
60.2459
60.2002
60.1342
60.1009
60.845
60.700
60.679
60.838
60.1200
60.1496
60.1616
60.1506
60.1075
60.589
60.108
59.9705
59.9224
59.8834
59.8428
59.7687
59.7193
59.6941
59.6850
59.6884
59.7187
59.7883
59.8662
59.9113
59.9250
59.9258
59.9145
59.8764
59.8509
59.8372
59.8209
59.7800
59.7575
59.7693
59.7889
59.8229
59.8703
59.9471
60.336
60.1122
60.1657
60.1869
60.1981
60.2059
60.2162
60.2080
60.2002
60.2052
60.1705
60.1376
60.1303
60.1469
60.1663
60.1944
60.2665
60.3429
60.3904
60.4044
60.3977
60.3760
60.3273
60.2725
60.2310
60.1864
60.1326
60.802
60.540
60.443
60.389
60.443
60.696
60.1099
60.1374
60.1477
60.1319
60.777
60.317
59.9837
59.9405
59.8913
59.8610
59.7957
59.7267
59.6758
59.6562
59.6506
59.6573
59.7026
59.7836
59.8495
59.8753
59.8895
59.8895
59.8733
59.8428
59.8355
59.8258
59.8112
59.7750
59.7686
59.7914
59.8195
59.8570
59.9157
59.9981
60.634
60.1284
60.1640
60.1646
60.1662
60.1663
60.1642
60.1592
60.1518
60.1421
60.1116
60.896
60.1005
60.1215
60.1453
60.1929
60.2718
60.3473
60.3897
60.4005
60.3877
60.3623
60.3103
60.2676
60.2289
60.1826
60.1164
60.640
60.415
60.268
60.233
60.288
60.600
60.824
60.1075
60.1050
60.636
60.203
59.9814
59.9340
59.8904
59.8516
59.8139
59.7544
59.6928
59.6577
59.6473
59.6441
59.6616
59.7283
59.8060
59.8561
59.8624
59.8604
59.8534
59.8153
59.7777
59.7623
59.7443
59.7185
59.6898
59.6938
59.7128
59.7406
59.7818
59.8473
59.9248
60.39
60.618
60.892
60.900
60.999
60.1127
60.1104
60.1059
60.1124
60.873
60.591
60.464
60.644
60.855
60.1106
60.1843
60.2711
60.3317
60.3548
60.3596
60.3520
60.3197
60.2623
60.2202
60.1828
60.1378
60.793
60.445
60.279
60.242
60.250
60.425
60.768
60.983
60.1152
60.984
60.571
60.114
59.9612
59.9101
59.8618
59.8201
59.7795
59.7108
59.6599
59.6404
59.6306
59.6309
59.6675
59.7333
59.8084
59.8447
59.8605
59.8600
59.8412
59.8017
59.7807
59.7754
59.7646
59.7294
59.7118
59.7159
59.7434
59.7770
59.8227
59.8964
59.9691
60.414
60.811
60.974
60.1034
60.1078
60.1131
60.1146
60.1088
60.1111
60.821
60.548
60.649
60.890
60.1120
60.1455
60.2126
60.2923
60.3476
60.3665
60.3660
60.3475
60.3029
60.2506
60.2123
60.1605
60.987
60.400
60.97
59.9972
59.9917
59.9931
60.240
60.542
60.903
60.1043
60.835
60.412
60.37
59.9580
59.9186
59.8743
59.8429
59.7825
59.7105
59.6697
59.6471
59.6410
59.6476
59.7002
59.7734
59.8307
59.8529
59.8522
59.8608
59.8454
59.8200
59.8037
59.7867
59.7662
59.7302
59.7189
59.7398
59.7641
59.8059
59.8739
59.9506
60.290
60.956
60.1310
60.1371
60.1357
60.1391
60.1395
60.1258
60.1212
60.1152
60.777
60.537
60.660
60.904
60.1090
60.1541
60.2312
60.3081
60.3465
60.3602
60.3549
60.3315
60.2856
60.2392
60.2036
60.1658
60.1048
60.523
60.299
60.161
60.64
60.158
60.429
60.641
60.855
60.815
60.530
60.10
59.9539
59.9017
59.8564
59.8169
59.7828
59.7151
59.6488
59.6100
59.5994
59.5939
59.6135
59.6758
59.7490
59.7973
59.8105
59.8098
59.8085
59.7724
59.7456
59.7333
59.7158
59.6871
59.6490
59.6447
59.6558
59.6845
59.7249
59.7907
59.8692
59.9437
60.11
60.306
60.402
60.525
60.588
60.571
60.555
60.537
60.423
60.96
60.13
60.169
60.453
60.679
60.1222
60.1974
60.2636
60.2886
60.2989
60.2876
60.2512
60.2022
60.1663
60.1309
60.834
60.171
59.9746
59.9617
59.9587
59.9594
59.9752
60.61
60.366
60.583
60.560
60.173
59.9735
59.9336
59.8845
59.8318
59.7914
59.7494
59.6758
59.6124
59.5807
59.5680
59.5642
59.5906
59.6568
59.7250
59.7714
59.7850
59.7830
59.7696
59.7438
59.7210
59.7095
59.6956
59.6737
59.6541
59.6663
59.6871
59.7193
59.7678
59.8501
59.9342
60.96
60.611
60.769
60.722
60.708
60.717
60.634
60.546
60.571
60.344
60.67
60.82
60.351
60.587
60.889
60.1561
60.2440
60.3082
60.3366
60.3465
60.3383
60.2990
60.2464
60.2094
60.1697
60.1181
60.551
60.240
60.23
59.9883
59.9945
60.99
60.420
60.670
60.814
60.634
60.113
59.9744
59.9336
59.8860
59.8428
59.8044
59.7555
59.6840
59.6380
59.6168
59.6152
59.6159
59.6550
59.7293
59.8013
59.8352
59.8396
59.8342
59.8188
59.7834
59.7601
59.7488
59.7357
59.7013
59.6826
59.7002
59.7275
59.7667
59.8180
59.8994
59.9786
60.552
60.996
60.1141
60.1253
60.1310
60.1372
60.1400
60.1290
60.1288
60.994
60.774
60.813
60.991
60.1187
60.1553
60.2302
60.3066
60.3490
60.3601
60.3577
60.3340
60.2882
60.2413
60.2091
60.1615
60.1073
60.606
60.366
60.203
60.180
60.293
60.668
60.1031
60.1320
60.1363
60.1012
60.483
60.41
59.9540
59.8995
59.8502
59.8101
59.7417
59.6664
59.6245
59.6149
59.6086
59.6123
59.6659
59.7426
59.8103
59.8375
59.8440
59.8528
59.8280
59.7954
59.7817
59.7625
59.7373
59.7020
59.6909
59.7076
59.7316
59.7678
59.8303
59.9097
59.9914
60.599
60.998
60.979
60.1015
60.1063
60.1067
60.1009
60.1002
60.866
60.501
60.294
60.403
60.587
60.900
60.1520
60.2398
60.3145
60.3571
60.3744
60.3703
60.3367
60.2776
60.2350
60.1847
60.1306
60.574
60.53
59.9871
59.9692
59.9657
59.9763
60.136
60.479
60.733
60.780
60.507
60.129
59.9739
59.9304
59.8892
59.8506
59.8086
59.7398
59.6711
59.6386
59.6329
59.6360
59.6580
59.7187
59.8037
59.8516
59.8671
59.8718
59.8691
59.8357
59.8058
59.7963
59.7788
59.7449
59.7171
59.7224
59.7486
59.7785
59.8294
59.9087
59.9881
60.674
60.1326
60.1679
60.1654
60.1668
60.1719
60.1652
60.1656
60.1617
60.1269
60.884
60.840
60.1028
60.1213
60.1547
60.2218
60.3038
60.3740
60.4044
60.4133
60.4073
60.3674
60.3190
60.2767
60.2385
60.1776
60.1145
60.807
60.678
60.606
60.618
60.905
60.1258
60.1591
60.1714
60.1566
60.1060
60.607
60.76
59.9515
59.9009
59.8557
59.8046
59.7325
59.6895
59.6735
59.6672
59.6672
59.7052
59.7838
59.8579
59.8989
59.9090
59.9067
59.8897
59.8504
59.8268
59.8094
59.7866
59.7484
59.7257
59.7417
59.7622
59.7879
59.8402
59.9127
59.9864
60.615
60.1079
60.1250
60.1278
60.1350
60.1359
60.1388
60.1349
60.1351
60.1012
60.742
60.768
60.990
60.1215
60.1584
60.2386
60.3136
60.3651
60.3748
60.3799
60.3598
60.3079
60.2598
60.2215
60.1661
60.998
60.406
60.123
59.9999
59.9900
60.37
60.438
60.849
60.1161
60.1283
60.1073
60.605
60.204
59.9687
59.9193
59.8675
59.8383
59.7719
59.7015
59.6563
59.6443
59.6416
59.6467
59.6970
59.7766
59.8348
59.8538
59.8618
59.8642
59.8433
59.8138
59.7996
59.7912
59.7698
59.7379
59.7306
59.7493
59.7774
59.8184
59.8804
59.9628
60.339
60.1005
60.1375
60.1468
60.1543
60.1647
60.1594
60.1557
60.1528
60.1413
60.941
60.740
60.840
60.1103
60.1339
60.1918
60.2745
60.3527
60.3948
60.4133
60.4128
60.3832
60.3293
60.2907
60.2490
60.1967
60.1209
60.754
60.582
60.458
60.452
60.512
60.750
60.1060
60.1370
60.1328
60.944
60.502
60.40
59.9558
59.9154
59.8734
59.8325
59.7596
59.7038
59.6787
59.6694
59.6676
59.6953
59.7610
59.8398
59.8861
59.9010
59.9049
59.9044
59.8772
59.8481
59.8382
59.8178
59.7846
59.7594
59.7659
59.7849
59.8084
59.8505
59.9260
60.43
60.893
60.1486
60.1735
60.1825
60.1923
60.1962
60.1905
60.1757
60.1698
60.1438
60.1111
60.1026
60.1199
60.1424
60.1678
60.2238
60.3019
60.3654
60.3905
60.3949
60.3832
60.3452
60.2894
60.2532
60.2079
60.1547
60.993
60.661
60.538
60.417
60.445
60.729
60.1129
60.1471
60.1555
60.1392
60.936
60.433
59.9989
59.9420
59.8862
59.8428
59.7836
59.7116
59.6579
59.6361
59.6316
59.6310
59.6750
59.7597
59.8313
59.8627
59.8733
59.8696
59.8513
59.8104
59.7886
59.7769
59.7617
59.7127
59.6891
59.7003
59.7227
59.7578
59.8122
59.8837
59.9632
60.371
60.836
60.979
60.1014
60.1067
60.1073
60.989
60.887
60.838
60.440
60.174
60.219
60.476
60.671
60.1047
60.1905
60.2825
60.3333
60.3534
60.3570
60.3418
60.2895
60.2444
60.2040
60.1601
60.901
60.254
59.9933
59.9727
59.9629
59.9742
60.79
60.375
60.694
60.783
60.577
60.161
59.9811
59.9391
59.8975
59.8480
59.8161
59.7487
59.6832
59.6427
59.6250
59.6176
59.6229
59.6762
59.7524
59.8146
59.8373
59.8437
59.8450
59.8215
59.7875
59.7733
59.7571
59.7378
59.7024
59.6939
59.7156
59.7433
59.7882
59.8563
59.9384
60.169
60.868
60.1285
60.1461
60.1551
60.1594
60.1634
60.1530
60.1533
60.1341
60.963
60.718
60.855
60.1082
60.1233
60.1676
60.2455
60.3265
60.3626
60.3781
60.3709
60.3471
60.2995
60.2686
60.2379
60.1890
60.1260
60.706
60.525
60.403
60.402
60.507
60.883
60.1241
60.1486
60.1431
60.1064
60.635
60.171
59.9716
59.9154
59.8640
59.8264
59.7529
59.6887
59.6568
59.6471
59.6517
59.6695
59.7372
59.8166
59.8669
59.8881
59.8849
59.8819
59.8536
59.8296
59.8193
59.8047
59.7726
59.7380
59.7391
59.7534
59.7789
59.8234
59.8974
59.9764
60.536
60.1129
60.1419
60.1453
60.1607
60.1636
60.1687
60.1579
60.1605
60.1317
60.980
60.985
60.1161
60.1350
60.1639
60.2237
60.3023
60.3664
60.3887
60.3915
60.3858
60.3461
60.2911
60.2530
60.2094
60.1549
60.906
60.596
60.464
60.359
60.363
60.560
60.877
60.1141
60.1377
60.1208
60.764
60.345
59.9828
59.9383
59.8960
59.8569
59.8050
59.7360
59.6779
59.6547
59.6471
59.6446
59.6882
59.7592
59.8296
59.8602
59.8658
59.8676
59.8531
59.8177
59.8003
59.7793
59.7674
59.7371
59.7261
59.7418
59.7782
59.8245
59.8796
59.9522
60.341
60.1027
60.1411
60.1496
60.1439
60.1514
60.1438
60.1355
60.1256
60.1288
60.899
60.630
60.665
60.936
60.1163
60.1572
60.2309
60.3097
60.3567
60.3704
60.3677
60.3551
60.2979
60.2557
60.2128
60.1748
60.1115
60.633
60.399
60.289
60.142
60.142
60.375
60.685
60.902
60.968
60.580
60.57
59.9634
59.9194
59.8744
59.8336
59.8026
59.7454
59.6869
59.6498
59.6422
59.6445
59.6514
59.7092
59.7921
59.8531
59.8725
59.8681
59.8572
59.8314
59.7977
59.7769
59.7658
59.7511
59.7206
59.7276
59.7486
59.7804
59.8274
59.8837
59.9619
60.393
60.1094
60.1453
60.1506
60.1580
60.1673
60.1717
60.1685
60.1744
60.1671
60.1247
60.1106
60.1233
60.1471
60.1648
60.2194
60.2977
60.3744
60.4066
60.4122
60.4006
60.3674
60.3158
60.2731
60.2370
60.1956
60.1349
60.910
60.774
60.683
60.706
60.827
60.1129
60.1469
60.1740
60.1671
60.1292
60.824
60.311
59.9839
59.9341
59.8968
59.8599
59.7943
59.7334
59.6993
59.6893
59.6847
59.7119
59.7787
59.8568
59.9051
59.9179
59.9249
59.9169
59.8866
59.8644
59.8511
59.8355
59.8044
59.7774
59.7812
59.8049
59.8361
59.8804
59.9556
60.293
60.1061
60.1605
60.1844
60.1792
60.1782
60.1814
60.1776
60.1708
60.1772
60.1532
60.1235
60.1263
60.1548
60.1825
60.2194
60.2835
60.3736
60.4408
60.4712
60.4723
60.4641
60.4205
60.3658
60.3323
60.2826
60.2295
60.1661
60.1365
60.1211
60.1169
60.1131
60.1362
60.1692
60.1964
60.2136
60.1987
60.1535
60.1091
60.681
60.202
59.9758
59.9393
59.8856
59.8199
59.7789
59.7677
59.7574
59.7558
59.7973
59.8643
59.9216
59.9509
59.9559
59.9507
59.9304
59.8905
59.8761
59.8599
59.8369
59.7987
59.7947
59.8114
59.8468
59.8890
59.9495
60.296
60.1059
60.1762
60.2166
60.2177
60.2145
60.2154
60.2182
60.2099
60.2030
60.1976
60.1582
60.1382
60.1492
60.1709
60.1864
60.2268
60.3033
60.3755
60.4133
60.4200
60.4191
60.3901
60.3360
60.2883
60.2497
60.2056
60.1445
60.983
60.801
60.689
60.565
60.616
60.909
60.1209
60.1422
60.1427
60.1090
60.556
60.77
59.9588
59.9124
59.8642
59.8308
59.7572
59.6946
59.6571
59.6465
59.6392
59.6559
59.7145
59.7947
59.8501
59.8748
59.8764
59.8733
59.8502
59.8263
59.8202
59.8061
59.7832
59.7502
59.7480
59.7585
59.7805
59.8263
59.8884
59.9668
60.443
60.1062
60.1326
60.1383
60.1503
60.1583
60.1592
60.1512
60.1531
60.1410
60.1109
60.989
60.1170
60.1441
60.1680
60.2301
60.3087
60.3719
60.3987
60.4121
60.4048
60.3690
60.3155
60.2779
60.2345
60.1842
60.1141
60.749
60.543
60.440
60.437
60.584
60.922
60.1194
60.1366
60.1267
60.871
60.460
60.66
59.9636
59.9157
59.8753
59.8278
59.7609
59.6990
59.6681
59.6576
59.6570
59.6832
59.7500
59.8195
59.8578
59.8683
59.8640
59.8472
59.8087
59.7839
59.7682
59.7469
59.7189
59.6941
59.7070
59.7280
59.7624
59.8118
59.8921
59.9644
60.385
60.854
60.948
60.936
60.992
60.1013
60.957
60.910
60.845
60.550
60.241
60.228
60.448
60.698
60.984
60.1724
60.2532
60.3113
60.3375
60.3417
60.3317
60.2808
60.2342
60.1990
60.1663
60.1179
60.557
60.247
60.81
59.9936
59.9931
60.163
60.493
60.777
60.865
60.608
60.180
59.9716
59.9313
59.8857
59.8375
59.8061
59.7477
59.6826
59.6325
59.6089
59.6114
59.6201
59.6669
59.7479
59.8180
59.8488
59.8573
59.8562
59.8382
59.8068
59.7826
59.7711
59.7478
59.7065
59.6970
59.7042
59.7249
59.7602
59.8148
59.8936
59.9742
60.428
60.895
60.1083
60.1221
60.1257
60.1258
60.1172
60.1175
60.1071
60.678
60.378
60.442
60.652
60.882
60.1351
60.2103
60.2922
60.3325
60.3448
60.3392
60.3159
60.2657
60.2180
60.1867
60.1517
60.872
60.347
60.110
60.13
59.9977
60.117
60.444
60.782
60.1052
60.1086
60.785
60.299
59.9854
59.9411
59.8904
59.8430
59.8087
59.7369
59.6622
59.6250
59.6166
59.6172
59.6292
59.6891
59.7598
59.8165
59.8409
59.8468
59.8490
59.8285
59.7967
59.7961
59.7825
59.7663
59.7327
59.7292
59.7469
59.7767
59.8184
59.8825
59.9654
60.311
60.985
60.1342
60.1392
60.1426
60.1555
60.1494
60.1461
60.1488
60.1340
60.973
60.882
60.998
60.1230
60.1468
60.2002
60.2874
60.3570
60.3941
60.4153
60.4111
60.3834
60.3262
60.2865
60.2400
60.1863
60.1080

END