=~=~=~=~=~=~=~=~=~=~=~= PuTTY log 2025.04.16 15:17:26 =~=~=~=~=~=~=~=~=~=~=~=




Speed (Hz)
59.9339
60.1815
60.5275
60.6289
60.5691
60.5011
60.4097
60.2685
60.1880
60.2144
60.2639
60.2610
60.1973
60.1322
60.1109
60.1064
60.1212
60.1303
60.602
59.9881
59.9831
60.358
60.977
60.1071
60.705
60.563
60.854
60.1303
60.1371
60.443
59.9869
60.84
60.650
60.1177
60.1423
60.1224
60.879
60.836
60.1265
60.1521
60.694
59.9932
60.122
60.773
60.1138
60.949
60.437
60.133
59.9982
60.144
60.383
59.9864
59.8936
59.8567
59.8843
59.9193
59.9167
59.8625
59.8228
59.8115
59.8225
59.8249
59.7309
59.6050
59.5663
59.6060
59.6475
59.6772
59.6571
59.6221
59.5884
59.5870
59.6288
59.6201
59.5261
59.4851
59.5445
59.6163
59.6487
59.6169
59.5835
59.5914
59.6251
59.6787
59.7007
59.6446
59.6093
59.6427
59.7170
59.7911
59.8071
59.7842
59.7910
59.8420
59.8960
59.9049
59.8249
59.7899
59.8367
59.9137
59.9843
60.252
60.246
60.103
60.212
60.787
60.1082
60.246
59.9569
59.9989
60.885
60.1291
60.1042
60.584
60.335
60.329
60.593
60.835
60.171
59.9375
59.9238
59.9638
60.69
60.43
59.9526
59.9231
59.9263
59.9475
59.9494
59.8522
59.7503
59.7347
59.7738
59.8164
59.8440
59.8241
59.7904
59.7612
59.7721
59.8156
59.7762
59.6780
59.6592
59.7333
59.7979
59.8142
59.7743
59.7631
59.7828
59.8184
59.8649
59.8672
59.8136
59.7889
59.8302
59.9102
59.9827
59.9820
59.9632
59.9881
60.429
60.908
60.661
59.9863
59.9768
60.334
60.991
60.1686
60.1948
60.1839
60.1677
60.1848
60.2404
60.2366
60.1400
60.1080
60.1744
60.2425
60.2623
60.2216
60.1833
60.1719
60.1847
60.2190
60.2136
60.1302
60.661
60.671
60.1014
60.1241
60.937
60.392
60.115
60.179
60.390
60.87
59.8857
59.8028
59.8157
59.8682
59.9068
59.9158
59.8785
59.8328
59.8143
59.8458
59.8767
59.8006
59.7185
59.7351
59.8129
59.8660
59.8614
59.8278
59.8187
59.8358
59.8708
59.9033
59.8735
59.8166
59.8160
59.8735
59.9582
60.55
59.9855
59.9712
59.9944
60.496
60.891
60.299
59.9650
59.9875
60.585
60.1204
60.1767
60.1830
60.1588
60.1514
60.1932
60.2462
60.1917
60.988
60.1050
60.1848
60.2378
60.2376
60.1946
60.1643
60.1522
60.1685
60.2043
60.1736
60.826
60.386
60.621
60.1016
60.1148
60.776
60.325
60.139
60.320
60.522
59.9857
59.8581
59.8028
59.8356
59.8834
59.9137
59.8940
59.8573
59.8243
59.8197
59.8560
59.8473
59.7454
59.6948
59.7466
59.8252
59.8631
59.8444
59.8189
59.8281
59.8567
59.9054
59.9306
59.8806
59.8425
59.8751
59.9451
60.142
60.290
60.33
60.82
60.601
60.1213
60.1299
60.511
60.180
60.645
60.1282
60.1958
60.2433
60.2433
60.2309
60.2368
60.2854
60.3169
60.2248
60.1582
60.2012
60.2808
60.3222
60.2996
60.2546
60.2420
60.2495
60.2774
60.2959
60.2204
60.1363
60.1173
60.1519
60.1842
60.1684
60.1115
60.762
60.790
60.1008
60.988
59.9965
59.8978
59.8839
59.9239
59.9651
59.9958
59.9721
59.9287
59.8926
59.9078
59.9413
59.8912
59.8007
59.7938
59.8703
59.9333
59.9391
59.8972
59.8815
59.8956
59.9295
59.9759
59.9712
59.9119
59.8908
59.9429
60.216
60.850
60.795
60.607
60.844
60.1350
60.1839
60.1490
60.730
60.705
60.1335
60.2037
60.2681
60.2781
60.2575
60.2382
60.2628
60.3206
60.2893
60.1880
60.1642
60.2359
60.2997
60.3196
60.2772
60.2420
60.2222
60.2387
60.2775
60.2686
60.1675
60.1042
60.1113
60.1537
60.1812
60.1435
60.834
60.602
60.697
60.873
60.407
59.9123
59.8369
59.8478
59.8907
59.9253
59.9223
59.8881
59.8451
59.8283
59.8584
59.8732
59.7896
59.7210
59.7588
59.8358
59.8773
59.8591
59.8190
59.8133
59.8386
59.8823
59.9186
59.8737
59.8140
59.8231
59.8919
59.9751
60.58
59.9827
59.9779
60.133
60.680
60.983
60.367
59.9800
60.76
60.795
60.1450
60.1924
60.1922
60.1744
60.1790
60.2275
60.2753
60.2162
60.1338
60.1556
60.2333
60.2786
60.2663
60.2217
60.1977
60.1855
60.1985
60.2279
60.1824
60.1018
60.683
60.897
60.1274
60.1328
60.823
60.404
60.405
60.593
60.680
59.9877
59.8769
59.8419
59.8780
59.9175
59.9412
59.9205
59.8851
59.8499
59.8461
59.8775
59.8545
59.7552
59.7196
59.7819
59.8503
59.8779
59.8477
59.8298
59.8382
59.8729
59.9149
59.9309
59.8688
59.8363
59.8747
59.9554
60.334
60.395
60.153
60.284
60.806
60.1358
60.1302
60.527
60.338
60.859
60.1513
60.2097
60.2359
60.2243
60.2059
60.2196
60.2790
60.2912
60.2043
60.1577
60.2147
60.2931
60.3260
60.2925
60.2565
60.2394
60.2368
60.2629
60.2729
60.1990
60.1277
60.1190
60.1516
60.1812
60.1612
60.1067
60.736
60.743
60.928
60.745
59.9593
59.8561
59.8536
59.9035
59.9399
59.9506
59.9192
59.8805
59.8562
59.8712
59.9040
59.8394
59.7536
59.7615
59.8429
59.8988
59.8963
59.8571
59.8439
59.8564
59.8894
59.9287
59.9069
59.8458
59.8352
59.8912
59.9637
60.128
59.9982
59.9808
60.71
60.672
60.1124
60.698
60.18
60.40
60.635
60.1292
60.1892
60.1999
60.1840
60.1699
60.1999
60.2531
60.2183
60.1180
60.1071
60.1812
60.2402
60.2478
60.1999
60.1577
60.1392
60.1492
60.1762
60.1539
60.602
60.40
60.202
60.640
60.843
60.457
59.9950
59.9688
59.9768
59.9937
59.9493
59.8165
59.7514
59.7719
59.8098
59.8403
59.8370
59.8014
59.7556
59.7308
59.7607
59.7768
59.6887
59.6213
59.6585
59.7372
59.7803
59.7639
59.7269
59.7265
59.7462
59.7881
59.8301
59.7878
59.7306
59.7425
59.8136
59.8966
59.9322
59.9104
59.8981
59.9326
59.9928
60.160
59.9451
59.8855
59.9097
59.9789
60.451
60.943
60.959
60.758
60.740
60.1186
60.1659
60.1081
60.270
60.448
60.1236
60.1757
60.1752
60.1317
60.1039
60.926
60.1060
60.1394
60.976
60.89
59.9647
59.9810
60.149
60.243
59.9716
59.9316
59.9278
59.9478
59.9596
59.8839
59.7649
59.7258
59.7615
59.8085
59.8395
59.8236
59.7916
59.7553
59.7548
59.7957
59.7900
59.6892
59.6380
59.6958
59.7737
59.8088
59.7760
59.7514
59.7537
59.7804
59.8253
59.8484
59.7980
59.7585
59.7876
59.8581
59.9385
59.9590
59.9390
59.9437
59.9967
60.626
60.703
59.9880
59.9530
59.9978
60.682
60.1371
60.1732
60.1644
60.1440
60.1492
60.1964
60.2176
60.1369
60.798
60.1253
60.2024
60.2383
60.2123
60.1656
60.1434
60.1478
60.1790
60.1928
60.1235
60.410
60.259
60.631
60.1029
60.908
60.300
59.9920
59.9909
60.98
60.56
59.9005
59.7982
59.7791
59.8200
59.8550
59.8726
59.8370
59.7923
59.7720
59.7899
59.8329
59.7876
59.6934
59.6851
59.7590
59.8244
59.8383
59.8010
59.7851
59.7969
59.8242
59.8692
59.8640
59.8055
59.7794
59.8283
59.9068
59.9638
59.9511
59.9341
59.9551
60.79
60.533
60.294
59.9498
59.9427
60.19
60.678
60.1274
60.1459
60.1317
60.1186
60.1400
60.1968
60.1892
60.929
60.598
60.1226
60.1911
60.2137
60.1703
60.1286
60.1110
60.1200
60.1548
60.1562
60.647
59.9990
60.10
60.392
60.742
60.399
59.9889
59.9761
59.9927
60.93
59.9847
59.8598
59.7747
59.7904
59.8418
59.8812
59.8858
59.8552
59.8161
59.7975
59.8253
59.8493
59.7692
59.6849
59.7097
59.7907
59.8428
59.8291
59.7977
59.7995
59.8184
59.8564
59.9026
59.8793
59.8251
59.8255
59.8907
59.9708
60.151
59.9961
59.9923
60.293
60.852
60.1224
60.692
60.71
60.274
60.894
60.1513
60.2076
60.2170
60.1992
60.1920
60.2324
60.2822
60.2256
60.1390
60.1509
60.2337
60.2853
60.2887
60.2505
60.2170
60.2056
60.2250
60.2559
60.2148
60.1238
60.862
60.1133
60.1516
60.1569
60.1030
60.609
60.537
60.667
60.811
60.181
59.8942
59.8448
59.8749
59.9204
59.9516
59.9334
59.9035
59.8719
59.8682
59.9095
59.9032
59.8059
59.7594
59.8209
59.8933
59.9231
59.8910
59.8674
59.8769
59.9059
59.9477
59.9588
59.9019
59.8587
59.8878
59.9630
60.366
60.394
60.150
60.286
60.846
60.1442
60.1447
60.644
60.367
60.846
60.1540
60.2189
60.2479
60.2381
60.2173
60.2249
60.2828
60.3019
60.2122
60.1534
60.1974
60.2713
60.3056
60.2719
60.2274
60.2019
60.1965
60.2251
60.2489
60.1813
60.997
60.896
60.1235
60.1556
60.1403
60.856
60.502
60.500
60.708
60.635
59.9552
59.8532
59.8402
59.8747
59.9095
59.9276
59.9011
59.8589
59.8266
59.8340
59.8714
59.8118
59.7177
59.7150
59.7898
59.8507
59.8649
59.8267
59.8133
59.8285
59.8659
59.9099
59.9011
59.8376
59.8174
59.8728
59.9537
60.114
59.9976
59.9778
59.9937
60.483
60.976
60.623
59.9881
59.9885
60.509
60.1151
60.1750
60.1905
60.1709
60.1540
60.1867
60.2473
60.2335
60.1372
60.1103
60.1774
60.2399
60.2614
60.2211
60.1844
60.1653
60.1701
60.2037
60.1972
60.1077
60.509
60.634
60.898
60.1068
60.671
60.131
59.9902
60.77
60.342
59.9915
59.8647
59.7961
59.8172
59.8694
59.9125
59.9094
59.8737
59.8383
59.8234
59.8516
59.8695
59.7800
59.7080
59.7387
59.8180
59.8704
59.8572
59.8147
59.8109
59.8316
59.8759
59.9133
59.8746
59.8214
59.8366
59.9003
59.9779
60.194
59.9987
59.9888
60.325
60.980
60.1327
60.730
60.189
60.444
60.1124
60.1785
60.2313
60.2366
60.2178
60.2129
60.2550
60.3019
60.2410
60.1579
60.1756
60.2541
60.3000
60.2934
60.2448
60.2154
60.2097
60.2386
60.2742
60.2298
60.1403
60.1075
60.1383
60.1747
60.1827
60.1326
60.907
60.836
60.975
60.1005
60.113
59.8900
59.8425
59.8775
59.9214
59.9570
59.9381
59.8989
59.8628
59.8612
59.8994
59.8813
59.7865
59.7507
59.8092
59.8797
59.9100
59.8716
59.8452
59.8542
59.8759
59.9191
59.9356
59.8831
59.8514
59.8864
59.9560
60.240
60.259
59.9994
60.87
60.566
60.1120
60.1012
60.182
59.9904
60.387
60.1050
60.1728
60.2086
60.2040
60.1892
60.2041
60.2592
60.2716
60.1788
60.1259
60.1750
60.2478
60.2750
60.2442
60.1976
60.1674
60.1664
60.1996
60.2128
60.1303
60.512
60.448
60.791
60.1070
60.847
60.300
60.24
60.55
60.208
60.54
59.8914
59.7978
59.7915
59.8345
59.8687
59.8794
59.8484
59.8130
59.7888
59.8063
59.8358
59.7688
59.6727
59.6651
59.7382
59.7961
59.8084
59.7660
59.7524
59.7684
59.8036
59.8553
59.8448
59.7857
59.7703
59.8238
59.9044
59.9627
59.9496
59.9329
59.9496
60.86
60.583
60.240
59.9527
59.9545
60.223
60.904
60.1507
60.1650
60.1481
60.1269
60.1502
60.2048
60.1820
60.904
60.733
60.1455
60.2087
60.2284
60.1867
60.1548
60.1463
60.1599
60.1960
60.1888
60.955
60.305
60.385
60.779
60.1031
60.621
60.116
59.9882
60.38
60.206
59.9709
59.8480
59.7745
59.7917
59.8398
59.8778
59.8776
59.8448
59.8075
59.7934
59.8280
59.8490
59.7643
59.6914
59.7214
59.8028
59.8477
59.8295
59.7979
59.7953
59.8132
59.8576
59.8998
59.8634
59.8092
59.8110
59.8750
59.9497
59.9926
59.9717
59.9676
60.69
60.628
60.924
60.282
59.9767
60.107
60.799
60.1480
60.2063
60.2114
60.1938
60.1867
60.2264
60.2698
60.2019
60.1174
60.1421
60.2193
60.2618
60.2439
60.1939
60.1665
60.1615
60.1790
60.2082
60.1616
60.781
60.499
60.776
60.1112
60.1117
60.607
60.232
60.148
60.353
60.473
59.9682
59.8466
59.8025
59.8316
59.8721
59.9051
59.8841
59.8467
59.8147
59.8132
59.8447
59.8244
59.7258
59.6881
59.7433
59.8137
59.8411
59.8086
59.7883
59.8002
59.8284
59.8739
59.8941
59.8380
59.8005
59.8299
59.9035
59.9784
59.9806
59.9574
59.9673
60.151
60.673
60.615
59.9806
59.9511
59.9949
60.648
60.1329
60.1641
60.1578
60.1355
60.1462
60.1972
60.2172
60.1289
60.726
60.1221
60.1980
60.2324
60.2008
60.1557
60.1408
60.1428
60.1659
60.1858
60.1116
60.269
60.97
60.492
60.740
60.494
59.9917
59.9610
59.9650
59.9797
59.9766
59.8791
59.7737
59.7597
59.8075
59.8546
59.8855
59.8628
59.8259
59.7962
59.8066
59.8436
59.7929
59.6985
59.6873
59.7599
59.8226
59.8359
59.7895
59.7805
59.7943
59.8272
59.8749
59.8647
59.8037
59.7921
59.8427
59.9167
59.9730
59.9633
59.9507
59.9762
60.273
60.788
60.496
59.9796
59.9767
60.370
60.1056
60.1693
60.1878
60.1669
60.1531
60.1798
60.2395
60.2167
60.1093
60.785
60.1501
60.2169
60.2360
60.1939
60.1561
60.1387
60.1497
60.1906
60.1857
60.977
60.367
60.465
60.823
60.1067
60.714
60.176
59.9988
60.77
60.262
59.9902
59.8612
59.7819
59.7962
59.8484
59.8879
59.8834
59.8426
59.8085
59.7907
59.8214
59.8436
59.7589
59.6844
59.7168
59.8022
59.8519
59.8434
59.8084
59.8127
59.8351
59.8731
59.9169
59.8860
59.8316
59.8332
59.8944
59.9712
60.119
59.9918
59.9850
60.172
60.750
60.1098
60.489
59.9923
60.172
60.841
60.1524
60.2076
60.2148
60.1997
60.1892
60.2396
60.2926
60.2335
60.1473
60.1606
60.2313
60.2850
60.2864
60.2374
60.2063
60.2008
60.2171
60.2440
60.2010
60.1047
60.638
60.891
60.1293
60.1382
60.842
60.390
60.354
60.529
60.673
59.9930
59.8764
59.8397
59.8785
59.9217
59.9532
59.9356
59.9000
59.8535
59.8436
59.8872
59.8734
59.7694
59.7227
59.7823
59.8585
59.8915
59.8576
59.8296
59.8326
59.8647
59.9078
59.9298
59.8752
59.8347
59.8649
59.9371
60.87
60.133
59.9908
60.4
60.582
60.1190
60.1187
60.337
60.43
60.528
60.1190
60.1806
60.2119
60.1981
60.1750
60.1805
60.2351
60.2614
60.1763
60.1219
60.1735
60.2472
60.2838
60.2635
60.2193
60.2006
60.2030
60.2342
60.2510
60.1692
60.888
60.784
60.1139
60.1539
60.1406
60.848
60.507
60.542
60.748
60.629
59.9455
59.8494
59.8425
59.8868
59.9225
59.9407
59.9147
59.8716
59.8482
59.8636
59.9016
59.8460
59.7596
59.7631
59.8455
59.9081
59.9111
59.8722
59.8666
59.8831
59.9201
59.9639
59.9516
59.8884
59.8731
59.9261
60.5
60.645
60.515
60.338
60.630
60.1229
60.1725
60.1305
60.631
60.762
60.1450
60.2144
60.2785
60.2879
60.2664
60.2528
60.2888
60.3483
60.3160
60.2236
60.2140
60.2918
60.3515
60.3542
60.3057
60.2720
60.2558
60.2703
60.3006
60.2682
60.1740
60.1308
60.1569
60.1934
60.2186
60.1762
60.1277
60.1127
60.1288
60.1475
60.952
59.9745
59.9102
59.9315
59.9750
60.74
59.9964
59.9573
59.9180
59.9069
59.9412
59.9492
59.8543
59.7854
59.8271
59.9032
59.9439
59.9177
59.8836
59.8827
59.9057
59.9523
59.9950
59.9531
59.8959
59.9072
59.9819
60.571
60.856
60.603
60.515
60.901
60.1464
60.1649
60.903
60.407
60.713
60.1321
60.1930
60.2372
60.2313
60.2078
60.2037
60.2523
60.2884
60.2096
60.1383
60.1752
60.2514
60.2877
60.2733
60.2276
60.2021
60.1957
60.2200
60.2407
60.1697
60.756
60.508
60.802
60.1103
60.1030
60.456
59.9985
59.9928
60.144
60.208
59.9202
59.8048
59.7780
59.8181
59.8630
59.8861
59.8575
59.8200
59.7890
59.7906
59.8311
59.7932
59.6957
59.6698
59.7338
59.8067
59.8264
59.7838
59.7599
59.7676
59.7956
59.8398
59.8445
59.7829
59.7497
59.7839
59.8580
59.9272
59.9333
59.9126
59.9340
59.9885
60.439
60.407
59.9642
59.9478
60.18
60.633
60.1346
60.1671
60.1560
60.1323
60.1496
60.2054
60.2119
60.1162
60.707
60.1285
60.2028
60.2331
60.1938
60.1545
60.1394
60.1501
60.1799
60.1859
60.1070
60.366
60.339
60.697
60.977
60.738
60.232
60.42
60.67
60.259
60.168
59.8989
59.7995
59.7932
59.8369
59.8703
59.8810
59.8521
59.8106
59.7856
59.8081
59.8394
59.7717
59.6854
59.7005
59.7772
59.8354
59.8328
59.7954
59.7952
59.8198
59.8567
59.8996
59.8796
59.8188
59.8102
59.8601
59.9337
59.9833
59.9704
59.9574
59.9860
60.438
60.875
60.452
59.9813
59.9901
60.581
60.1228
60.1884
60.2021
60.1865
60.1761
60.2109
60.2664
60.2323
60.1441
60.1376
60.2123
60.2729
60.2858
60.2434
60.2150
60.2048
60.2157
60.2454
60.2176
60.1236
60.679
60.825
60.1161
60.1375
60.944
60.427
60.307
60.479
60.681
60.148
59.8913
59.8339
59.8625
59.9109
59.9470
59.9395
59.9019
59.8672
59.8478
59.8772
59.8828
59.7862
59.7181
59.7646
59.8405
59.8777
59.8589
59.8232
59.8228
59.8533
59.8995
59.9265
59.8702
59.8187
59.8376
59.9059
59.9835
60.115
59.9830
59.9821
60.248
60.819
60.984
60.258
59.9798
60.163
60.893
60.1520
60.1848
60.1787
60.1560
60.1523
60.1992
60.2372
60.1627
60.833
60.1067
60.1866
60.2355
60.2227
60.1772
60.1509
60.1432
60.1617
60.1896
60.1362
60.453
60.113
60.421
60.799
60.775
60.228
59.9814
59.9719
59.9891
59.9962
59.9057
59.7866
59.7554
59.7894
59.8305
59.8617
59.8366
59.7990
59.7651
59.7669
59.8042
59.7844
59.6861
59.6556
59.7252
59.7995
59.8245
59.7927
59.7701
59.7833
59.8164
59.8620
59.8680
59.8078
59.7782
59.8152
59.8921
59.9609
59.9618
59.9373
59.9470
59.9994
60.587
60.521
59.9731
59.9560
60.80
60.781
60.1462
60.1737
60.1622
60.1456
60.1560
60.2160
60.2214
60.1323
60.867
60.1382
60.1987
60.2290
60.1966
60.1579
60.1366
60.1379
60.1631
60.1721
60.988
60.246
60.194
60.599
60.962
60.715
60.164
59.9852
59.9914
60.182
60.84
59.8925
59.7940
59.7936
59.8397
59.8803
59.8910
59.8609
59.8252
59.8022
59.8183
59.8550
59.7882
59.6979
59.7016
59.7791
59.8326
59.8273
59.7892
59.7816
59.8027
59.8392
59.8941
59.8787
59.8189
59.8091
59.8693
59.9469
60.52
59.9886
59.9762
60.69
60.573
60.962
60.512
59.9823
59.9886
60.492
60.1150
60.1740
60.1787
60.1555
60.1407
60.1718
60.2373
60.2091
60.1141
60.1050
60.1794
60.2447
60.2580
60.2177
60.1840
60.1719
60.1772
60.2056
60.1859
60.940
60.383
60.543
60.898
60.1038
60.538
60.48
59.9894
59.9984
60.173
59.9687
59.8463
59.7806
59.7993
59.8419
59.8773
59.8758
59.8448
59.8062
59.7992
59.8335
59.8446
59.7532
59.6851
59.7238
59.8059
59.8480
59.8290
59.7943
59.7884
59.8074
59.8539
59.8922
59.8404
59.7855
59.7922
59.8558
59.9326
59.9657
59.9421
59.9405
59.9848
60.512
60.800
60.123
59.9599
59.9906
60.611
60.1289
60.1767
60.1731
60.1493
60.1525
60.1914
60.2347
60.1706
60.887
60.1092
60.1882
60.2355
60.2272
60.1787
60.1544
60.1531
60.1759
60.2079
60.1610
60.740
60.459
60.823
60.1189
60.1223
60.691
60.309
60.289
60.492
60.526
59.9645
59.8497
59.8138
59.8505
59.8966
59.9241
59.8985
59.8602
59.8215
59.8242
59.8666
59.8419
59.7453
59.7180
59.7836
59.8500
59.8736
59.8437
59.8222
59.8327
59.8685
59.9077
59.9225
59.8630
59.8255
59.8668
59.9378
60.53
60.81
59.9820
59.9903
60.421
60.978
60.910
60.139
59.9900
60.503
60.1221
60.1868
60.2174
60.2079
60.1895
60.2100
60.2688
60.2770
60.1870
60.1398
60.2043
60.2800
60.3114
60.2765
60.2341
60.2153
60.2259
60.2558
60.2681
60.1874
60.1101
60.1046
60.1448
60.1752
60.1521
60.933
60.659
60.790
60.1071
60.968
59.9850
59.8886
59.8899
59.9436
59.9879
59.9977
59.9645
59.9208
59.8887
59.9159
59.9594
59.8860
59.7941
59.8053
59.8861
59.9381
59.9412
59.9032
59.8903
59.9061
59.9472
59.9991
59.9764
59.9088
59.9016
59.9590
60.330
60.844
60.673
60.557
60.874
60.1448
60.1852
60.1322
60.629
60.798
60.1415
60.1982
60.2452
60.2469
60.2284
60.2168
60.2473
60.2942
60.2488
60.1552
60.1480
60.2184
60.2744
60.2830
60.2378
60.2044
60.1909
60.2046
60.2415
60.2169
60.1211
60.741
60.967
60.1270
60.1354
60.800
60.256
60.85
60.158
60.285
59.9709
59.8481
59.7871
59.8095
59.8532
59.8786
59.8655
59.8343
59.7975
59.7865
59.8120
59.8161
59.7202
59.6650
59.7142
59.7852
59.8189
59.7976
59.7629
59.7615
59.7807
59.8244
59.8537
59.8071
59.7551
59.7712
59.8355
59.9124
59.9348
59.9107
59.9034
59.9444
60.67
60.314
59.9585
59.9153
59.9490
60.188
60.858
60.1361
60.1393
60.1195
60.1213
60.1723
60.2121
60.1352
60.566
60.781
60.1524
60.1942
60.1876
60.1406
60.1120
60.1088
60.1303
60.1582
60.1021
60.128
59.9901
60.266
60.618
60.626
60.89
59.9633
59.9617
59.9819
59.9910
59.9042
59.7924
59.7604
59.7986
59.8413
59.8696
59.8504
59.8107
59.7744
59.7812
59.8238
59.7934
59.6909
59.6587
59.7242
59.7938
59.8185
59.7809
59.7636
59.7782
59.8162
59.8663
59.8823
59.8263
59.7954
59.8330
59.9115
59.9799
59.9839
59.9622
59.9753
60.277
60.824
60.739
59.9924
59.9732
60.340
60.1006
60.1612
60.1887
60.1796
60.1637
60.1810
60.2390
60.2476
60.1607
60.1194
60.1726
60.2479
60.2836
60.2533
60.2131
60.1922
60.1892
60.2235
60.2328
60.1579
60.878
60.842
60.1205
60.1450
60.1161
60.560
60.306
60.338
60.516
60.378
59.9204
59.8271
59.8319
59.8808
59.9188
59.9324
59.8957
59.8574
59.8309
59.8559
59.8925
59.8228
59.7333
59.7442
59.8212
59.8792
59.8713
59.8285
59.8179
59.8300
59.8710
59.9174
59.8967
59.8356
59.8151
59.8671
59.9507
60.98
59.9958
59.9766
60.23
60.663
60.1147
60.657
59.9913
60.57
60.715
60.1385
60.2016
60.2128
60.1876
60.1725
60.2055
60.2609
60.2172
60.1192
60.1108
60.1840
60.2377
60.2386
60.1983
60.1633
60.1457
60.1574
60.1901
60.1675
60.833
60.297
60.474
60.858
60.1030
60.591
60.76
59.9874
59.9982
60.109
59.9558
59.8332
59.7644
59.7827
59.8288
59.8646
59.8578
59.8241
59.7820
59.7627
59.7937
59.8093
59.7186
59.6520
59.6964
59.7816
59.8191
59.7944
59.7649
59.7712
59.8014
59.8412
59.8739
59.8354
59.7807
59.7939
59.8600
59.9399
59.9690
59.9416
59.9331
59.9754
60.356
60.581
59.9822
59.9343
59.9708
60.329
60.971
60.1468
60.1454
60.1319
60.1387
60.1864
60.2275
60.1575
60.768
60.953
60.1736
60.2190
60.2105
60.1665
60.1406
60.1336
60.1557
60.1853
60.1317
60.348
60.46
60.323
60.713
60.776
60.232
59.9823
59.9796
59.9943
59.9990
59.9101
59.7962
59.7635
59.8061
59.8589
59.8859
59.8698
59.8299
59.7915
59.7963
59.8374
59.8123
59.7093
59.6707
59.7361
59.8074
59.8335
59.8007
59.7791
59.7849
59.8119
59.8556
59.8778
59.8206
59.7840
59.8233
59.8995
59.9755
59.9821
59.9644
59.9801
60.340
60.825
60.742
59.9993
59.9737
60.276
60.969
60.1605
60.1891
60.1747
60.1574
60.1682
60.2195
60.2327
60.1415
60.924
60.1416
60.2162
60.2470
60.2144
60.1708
60.1502
60.1566
60.1914
60.2066
60.1276
60.499
60.432
60.767
60.1057
60.828
60.309
60.14
60.56
60.197
60.23
59.8903
59.7915
59.7787
59.8220
59.8544
59.8720
59.8488
59.8082
59.7824
59.8016
59.8418
59.7787
59.6915
59.6969
59.7737
59.8304
59.8355
59.7976
59.7842
59.7963
59.8345
59.8853
59.8714
59.8035
59.7869
59.8406
59.9194
59.9772
59.9682
59.9511
59.9653
60.189
60.588
60.181
59.9485
59.9549
60.237
60.942
60.1556
60.1711
60.1551
60.1377
60.1666
60.2274
60.1985
60.1021
60.863
60.1588
60.2195
60.2343
60.1893
60.1503
60.1297
60.1413
60.1810
60.1686
60.762
60.234
60.401
60.837
60.1057
60.693
60.184
60.30
60.149
60.311
59.9916
59.8765
59.8059
59.8330
59.8814
59.9231
59.9201
59.8860
59.8440
59.8250
59.8557
59.8785
59.7822
59.7030
59.7388
59.8218
59.8676
59.8533
59.8211
59.8201
59.8491
59.8979
59.9450
59.9048
59.8484
59.8615
59.9321
60.115
60.462
60.228
60.106
60.470
60.1069
60.1347
60.647
60.126
60.484
60.1154
60.1763
60.2227
60.2193
60.2007
60.2029
60.2495
60.2939
60.2204
60.1363
60.1590
60.2405
60.2924
60.2861
60.2395
60.2175
60.2136
60.2367
60.2657
60.2173
60.1297
60.1019
60.1288
60.1638
60.1608
60.1022
60.620
60.606
60.778
60.747
59.9896
59.8723
59.8355
59.8787
59.9276
59.9640
59.9464
59.9111
59.8764
59.8854
59.9218
59.8905
59.7867
59.7588
59.8287
59.8987
59.9156
59.8775
59.8585
59.8669
59.8962
59.9428
59.9556
59.8953
59.8498
59.8845
59.9608
60.312
60.305
60.104
60.277
60.774
60.1277
60.1210
60.431
60.277
60.833
60.1478
60.2156
60.2418
60.2367
60.2206
60.2336
60.2819
60.2846
60.1816
60.1235
60.1807
60.2519
60.2779
60.2437
60.2041
60.1882
60.1890
60.2181
60.2289
60.1552
60.836
60.836
60.1216
60.1524
60.1206
60.568
60.284
60.379
60.572
60.374
59.9177
59.8259
59.8264
59.8688
59.9030
59.9160
59.8844
59.8422
59.8157
59.8322
59.8634
59.7983
59.7071
59.7054
59.7795
59.8429
59.8432
59.8045
59.7904
59.8082
59.8567
59.9079
59.8875
59.8283
59.8228
59.8804
59.9517
59.9988
59.9778
59.9570
59.9817
60.361
60.819
60.382
59.9643
59.9661
60.275
60.934
60.1600
60.1765
60.1643
60.1500
60.1779
60.2333
60.1952
60.1046
60.961
60.1703
60.2261
60.2337
60.1924
60.1592
60.1482
60.1644
60.1953
60.1727
60.806
60.279
60.421
60.778
60.954
60.476
60.61
59.9887
59.9977
60.122
59.9655
59.8486
59.7834
59.8056
59.8594
59.8983
59.8926
59.8558
59.8219
59.8124
59.8456
59.8530
59.7601
59.6916
59.7329
59.8091
59.8494
59.8284
59.8025
59.8082
59.8399
59.8831
59.9198
59.8756
59.8278
59.8430
59.9104
59.9849
60.113
59.9917
59.9977
60.462
60.1063
60.1322
60.646
60.205
60.571
60.1285
60.1884
60.2330
60.2308
60.2093
60.2078
60.2550
60.2990
60.2317
60.1558
60.1782
60.2545
60.3006
60.2902
60.2503
60.2229
60.2155
60.2380
60.2692
60.2189
60.1352
60.1094
60.1429
60.1773
60.1816
60.1250
60.832
60.771
60.960
60.1008
60.22
59.8832
59.8522
59.8944
59.9330
59.9534
59.9311
59.8955
59.8600
59.8664
59.9080
59.8781
59.7769
59.7518
59.8216
59.8904
59.9083
59.8712
59.8561
59.8604
59.8894
59.9364
59.9479
59.8889
59.8513
59.8916
59.9659
60.330
60.300
59.9990
60.66
60.622
60.1151
60.975
60.214
60.47
60.567
60.1263
60.1975
60.2264
60.2181
60.1954
60.2111
60.2716
60.2717
60.1713
60.1269
60.1861
60.2535
60.2749
60.2292
60.1893
60.1722
60.1738
60.1991
60.2005
60.1111
60.332
60.323
60.728
60.1002
60.741
60.198
59.9939
60.7
60.230
60.1
59.8798
59.7869
59.7897
59.8385
59.8757
59.8838
59.8467
59.8103
59.7805
59.7989
59.8317
59.7573
59.6668
59.6788
59.7529
59.8041
59.8004
59.7633
59.7608
59.7834
59.8223
59.8727
59.8534
59.7940
59.7913
59.8524
59.9301
59.9792
59.9596
59.9434
59.9729
60.285
60.685
60.205
59.9504
59.9559
60.204
60.895
60.1587
60.1725
60.1472
60.1315
60.1636
60.2214
60.1796
60.859
60.823
60.1604
60.2219
60.2360
60.1922
60.1582
60.1469
60.1596
60.1988
60.1748
60.894
60.384
60.529
60.872
60.1017
60.548
60.73
59.9905
60.30
60.152
59.9600
59.8396
59.7803
59.8053
59.8488
59.8827
59.8746
59.8427
59.8115
59.8085
59.8484
59.8545
59.7654
59.7066
59.7538
59.8316
59.8710
59.8442
59.8080
59.8056
59.8345
59.8797
59.9144
59.8689
59.8145
59.8282
59.8915
59.9760
60.19
59.9810
59.9814
60.295
60.935
60.1175
60.480
60.1
60.351
60.1044
60.1715
60.2164
60.2074
60.1852
60.1878
60.2380
60.2769
60.1997
60.1239
60.1573
60.2360
60.2724
60.2474
60.1960
60.1702
60.1701
60.1921
60.2200
60.1629
60.726
60.463
60.801
60.1224
60.1217
60.729
60.362
60.257
60.386
60.432
59.9468
59.8305
59.7949
59.8402
59.8809
59.9014
59.8731
59.8325
59.8021
59.8081
59.8444
59.8107
59.7128
59.6820
59.7453
59.8103
59.8337
59.7959
59.7772
59.7882
59.8202
59.8652
59.8757
59.8224
59.7922
59.8243
59.9020
59.9781
59.9714
59.9394
59.9506
60.48
60.555
60.388
59.9560
59.9312
59.9818
60.498
60.1133
60.1424
60.1287
60.1093
60.1282
60.1884
60.1951
60.942
60.425
60.1001
60.1797
60.2114
60.1807
60.1421
60.1217
60.1247
60.1555
60.1654
60.847
60.120
60.75
60.384
60.679
60.440
59.9856
59.9589
59.9651
59.9870
59.9700
59.8616
59.7689
59.7717
59.8158
59.8546
59.8690
59.8508
59.8128
59.7847
59.8062
59.8379
59.7714
59.6794
59.6824
59.7623
59.8167
59.8180
59.7751
59.7645
59.7781
59.8120
59.8589
59.8485
59.7966
59.7859
59.8361
59.9093
59.9644
59.9508
59.9312
59.9546
60.134
60.645
60.319
59.9591
59.9628
60.273
60.957
60.1592
60.1722
60.1548
60.1383
60.1666
60.2178
60.1824
60.911
60.777
60.1540
60.2126
60.2278
60.1943
60.1540
60.1426
60.1601
60.1993
60.1843
60.932
60.372
60.522
60.927
60.1178
60.782
60.272
60.118
60.246
60.447
59.9948
59.8769
59.8091
59.8242
59.8701
59.9110
59.9070
59.8804
59.8449
59.8342
59.8708
59.8891
59.7963
59.7272
59.7682
59.8526
59.9004
59.8860
59.8531
59.8553
59.8780
59.9146
59.9510
59.9111
59.8630
59.8757
59.9461
60.280
60.560
60.346
60.321
60.779
60.1363
60.1600
60.879
60.414
60.790
60.1433
60.2018
60.2455
60.2507
60.2388
60.2396
60.2893
60.3315
60.2585
60.1794
60.2072
60.2862
60.3268
60.3134
60.2693
60.2390
60.2267
60.2490
60.2689
60.2053
60.1184
60.908
60.1190
60.1583
60.1538
60.981
60.638
60.637
60.765
60.797
59.9962
59.8887
59.8636
59.9043
59.9448
59.9736
59.9477
59.9024
59.8647
59.8706
59.9119
59.8801
59.7695
59.7339
59.8049
59.8740
59.8996
59.8575
59.8326
59.8443
59.8811
59.9250
59.9317
59.8674
59.8334
59.8781
59.9553
60.190
60.171
59.9936
60.53
60.534
60.1082
60.924
60.146
59.9996
60.505
60.1191
60.1854
60.2068
60.1916
60.1663
60.1825
60.2378
60.2368
60.1398
60.985
60.1603
60.2258
60.2572
60.2276
60.1905
60.1725
60.1808
60.2129
60.2208
60.1351
60.582
60.615
60.1015
60.1273
60.925
60.322
60.62
60.141
60.327
60.80
59.8853
59.7982
59.8085
59.8635
59.9037
59.9031
59.8711
59.8361
59.8154
59.8445
59.8786
59.8080
59.7182
59.7304
59.8157
59.8741
59.8754
59.8440
59.8424
59.8603
59.8899
59.9297
59.9043
59.8503
59.8401
59.8997
59.9802
60.317
60.171
60.59
60.365
60.1028
60.1534
60.1135
60.435
60.606
60.1322
60.1950
60.2530
60.2640
60.2470
60.2397
60.2740
60.3272
60.2810
60.1905
60.1937
60.2720
60.3278
60.3295
60.2835
60.2555
60.2437
60.2557
60.2948
60.2706
60.1795
60.1288
60.1572
60.1969
60.2114
60.1642
60.1204
60.1107
60.1274
60.1392
60.798
59.9547
59.9066
59.9387
59.9777
60.89
59.9938
59.9520
59.9086
59.9045
59.9374
59.9271
59.8260
59.7710
59.8256
59.8994
59.9372
59.9195
59.8952
59.8948
59.9157
59.9619
59.9865
59.9353
59.8979
59.9251
59.9974
60.686
60.744
60.428
60.481
60.951
60.1492
60.1549
60.754
60.393
60.816
60.1484
60.2096
60.2454
60.2334
60.2146
60.2204
60.2682
60.2893
60.2057
60.1482
60.1888
60.2663
60.3052
60.2823
60.2393
60.2129
60.2111
60.2364
60.2491
60.1750
60.918
60.685
60.967
60.1309
60.1190
60.621
60.266
60.230
60.411
60.351
59.9273
59.8213
59.8069
59.8560
59.9007
59.9156
59.8894
59.8501
59.8096
59.8148
59.8556
59.8105
59.7111
59.7016
59.7770
59.8318
59.8373
59.8014
59.7902
59.8034
59.8353
59.8771
59.8702
59.8078
59.7821
59.8222
59.8985
59.9655
59.9581
59.9375
59.9583
60.167
60.728
60.507
59.9782
59.9737
60.331
60.945
60.1530
60.1651
60.1503
60.1343
60.1552
60.2076
60.1921
60.969
60.615
60.1252
60.1897
60.2128
60.1773
60.1465
60.1278
60.1340
60.1654
60.1635
60.773
60.111
60.193
60.577
60.788
60.353
59.9824
59.9628
59.9739
59.9915
59.9623
59.8418
59.7575
59.7662
59.8114
59.8468
59.8544
59.8199
59.7737
59.7470
59.7753
59.8110
59.7326
59.6527
59.6756
59.7629
59.8189
59.8142
59.7774
59.7698
59.7928
59.8332
59.8733
59.8459
59.7905
59.7940
59.8536
59.9315
59.9786
59.9584
59.9458
59.9844
60.470
60.872
60.335
59.9718
59.9977
60.717
60.1347
60.1846
60.1875
60.1726
60.1743
60.2195
60.2726
60.2249
60.1317
60.1305
60.2075
60.2644
60.2756
60.2255
60.1935
60.1884
60.2017
60.2303
60.1887
60.970
60.561
60.799
60.1144
60.1202
60.630
60.234
60.196
60.419
60.541
59.9866
59.8639
59.8178
59.8551
59.8952
59.9259
59.9163
59.8796
59.8386
59.8253
59.8589
59.8496
59.7559
59.7032
59.7592
59.8347
59.8664
59.8298
59.8008
59.8069
59.8321
59.8817
59.9130
59.8602
59.8147
59.8340
59.9015
59.9808
59.9976
59.9705
59.9679
60.128
60.771
60.907
60.137
59.9756
60.197
60.862
60.1391
60.1685
60.1551
60.1341
60.1325
60.1846
60.2171
60.1365
60.666
60.1038
60.1797
60.2216
60.2092
60.1689
60.1414
60.1420
60.1694
60.1939
60.1208
60.361
60.115
60.453
60.772
60.630
60.95
59.9730
59.9698
59.9862
59.9824
59.8799
59.7757
59.7571
59.7998
59.8390
59.8675
59.8403
59.7955
59.7679
59.7819
59.8192
59.7827
59.6879
59.6672
59.7440
59.8136
59.8318
59.7875
59.7664
59.7839
59.8172
59.8578
59.8523
59.7817
59.7595
59.8045
59.8848
59.9569
59.9487
59.9316
59.9495
60.18
60.531
60.407
59.9705
59.9594
60.97
60.768
60.1411
60.1639
60.1523
60.1386
60.1614
60.2198
60.2235
60.1302
60.886
60.1469
60.2107
60.2344
60.1988
60.1629
60.1449
60.1520
60.1793
60.1780
60.895
60.173
60.238
60.639
60.961
60.721
60.221
60.50
60.182
60.418
60.172
59.8977
59.8102
59.8163
59.8623
59.8979
59.9005
59.8600
59.8200
59.8016
59.8337
59.8605
59.7841
59.6960
59.7152
59.8005
59.8596
59.8578
59.8221
59.8203
59.8386
59.8813
59.9262
59.8990
59.8419
59.8433
59.9066
59.9899
60.403
60.198
60.19
60.315
60.905
60.1319
60.744
60.53
60.144
60.790
60.1472
60.2065
60.2177
60.2025
60.1945
60.2251
60.2831
60.2398
60.1455
60.1447
60.2239
60.2837
60.2860
60.2439
60.2198
60.2085
60.2223
60.2524
60.2166
60.1193
60.726
60.949
60.1293
60.1401
60.920
60.452
60.308
60.532
60.728
60.69
59.8780
59.8264
59.8635
59.9170
59.9458
59.9284
59.8839
59.8517
59.8457
59.8830
59.8803
59.7860
59.7326
59.7825
59.8612
59.8962
59.8678
59.8379
59.8383
59.8612
59.9039
59.9266
59.8767
59.8329
59.8547
59.9227
59.9944
60.64
59.9829
59.9903
60.392
60.1004
60.1130
60.396
60.52
60.493
60.1191
60.1798
60.2077
60.1944
60.1726
60.1848
60.2366
60.2717
60.1843
60.1120
60.1501
60.2303
60.2727
60.2526
60.2061
60.1867
60.1882
60.2157
60.2384
60.1725
60.881
60.710
60.1026
60.1361
60.1263
60.708
60.372
60.393
60.574
60.587
59.9607
59.8509
59.8294
59.8712
59.9100
59.9338
59.8997
59.8545
59.8265
59.8391
59.8829
59.8387
59.7372
59.7268
59.8037
59.8701
59.8848
59.8454
59.8316
59.8482
59.8845
59.9294
59.9268
59.8677
59.8488
59.8942
59.9710
60.366
60.239
59.9978
60.176
60.725
60.1245
60.940
60.184
60.165
60.840
60.1517
60.2170
60.2346
60.2232
60.2048
60.2299
60.2916
60.2874
60.1891
60.1592
60.2280
60.2973
60.3151
60.2680
60.2282
60.2073
60.2198
60.2602
60.2569
60.1738
60.1114
60.1202
60.1530
60.1722
60.1355
60.887
60.701
60.816
60.1089
60.723
59.9481
59.8740
59.8943
59.9438
59.9799
59.9843
59.9491
59.9068
59.8860
59.9179
59.9412
59.8533
59.7730
59.7989
59.8742
59.9246
59.9089
59.8741
59.8753
59.8893
59.9237
59.9654
59.9334
59.8855
59.8844
59.9444
60.214
60.624
60.431
60.344
60.706
60.1271
60.1562
60.885
60.326
60.552
60.1161
60.1801
60.2242
60.2173
60.1953
60.1824
60.2202
60.2756
60.2192
60.1317
60.1471
60.2291
60.2794
60.2694
60.2229
60.1988
60.1994
60.2177
60.2399
60.1890
60.1038
60.655
60.830
60.1143
60.1209
60.725
60.249
60.143
60.321
60.373
59.9536
59.8228
59.7841
59.8201
59.8671
59.8958
59.8685
59.8282
59.7966
59.7952
59.8365
59.8278
59.7255
59.6816
59.7445
59.8176
59.8490
59.8156
59.7861
59.7868
59.8078
59.8495
59.8739
59.8172
59.7763
59.8077
59.8784
59.9557
59.9643
59.9415
59.9511
60.19
60.601
60.630
59.9824
59.9478
59.9993
60.709
60.1362
60.1790
60.1768
60.1574
60.1637
60.2126
60.2392
60.1584
60.975
60.1437
60.2160
60.2424
60.2139
60.1699
60.1396
60.1350
60.1665
60.1924
60.1213
60.366
60.299
60.725
60.1079
60.885
60.362
60.104
60.179
60.411
60.329
59.9267
59.8225
59.8064
59.8459
59.8830
59.9003
59.8710
59.8327
59.8058
59.8220
59.8578
59.8058
59.7096
59.7040
59.7863
59.8516
59.8599
59.8106
59.7989
59.8226
59.8641
59.9094
59.9044
59.8429
59.8321
59.8878
59.9671
60.295
60.174
59.9998
60.234
60.780
60.1217
60.850
60.37
60.56
60.655
60.1323
60.1958
60.2164
60.2006
60.1919
60.2151
60.2674
60.2562
60.1698
60.1446
60.2133
60.2820
60.3023
60.2689
60.2411
60.2257
60.2305
60.2633
60.2509
60.1609
60.944
60.968
60.1349
60.1601
60.1182
60.682
60.506
60.629
60.800
60.401
59.9102
59.8351
59.8425
59.8874
59.9276
59.9365
59.9042
59.8622
59.8451
59.8770
59.8976
59.8079
59.7318
59.7636
59.8406
59.8900
59.8754
59.8375
59.8330
59.8465
59.8832
59.9142
59.8752
59.8219
59.8326
59.8914
59.9664
60.76
59.9891
59.9855
60.314
60.939
60.1259
60.577
60.14
60.298
60.951
60.1577
60.2065
60.1970
60.1741
60.1687
60.2026
60.2464
60.1806
60.941
60.1116
60.1906
60.2387
60.2315
60.1832
60.1572
60.1426
60.1626
60.1888
60.1396
60.457
60.45
60.290
60.695
60.834
60.332
59.9845
59.9766
59.9977
60.88
59.9261
59.7932
59.7451
59.7755
59.8188
59.8406
59.8174
59.7763
59.7450
59.7440
59.7744
59.7688
59.6746
59.6291
59.6910
59.7683
59.8019
59.7715
59.7387
59.7428
59.7698
59.8191
59.8462
59.7915
59.7508
59.7741
59.8406
59.9179
59.9339
59.9051
59.9127
59.9626
60.246
60.317
59.9536
59.9127
59.9544
60.267
60.958
60.1317
60.1235
60.1018
60.1085
60.1642
60.1903
60.1035
60.403
60.902
60.1750
60.2114
60.1882
60.1430
60.1187
60.1181
60.1369
60.1527
60.805
59.9910
59.9756
60.148
60.490
60.368
59.9850
59.9504
59.9517
59.9783
59.9788
59.8753
59.7663
59.7554
59.8005
59.8400
59.8571
59.8295
59.7957
59.7653
59.7734
59.8130
59.7665
59.6673
59.6550
59.7307
59.7955
59.8045
59.7632
59.7430
59.7622
59.7989
59.8453
59.8442
59.7810
59.7532
59.8028
59.8841
59.9527
59.9434
59.9279
59.9504
60.79
60.598
60.348
59.9541
59.9463
60.40
60.735
60.1331
60.1511
60.1324
60.1164
60.1326
60.1830
60.1784
60.879
60.532
60.1240
60.2002
60.2254
60.1869
60.1520
60.1328
60.1388
60.1704
60.1700
60.864
60.154
60.174
60.547
60.810
60.491
59.9989
59.9762
59.9834
60.19
59.9711
59.8455
59.7609
59.7698
59.8131
59.8453
59.8447
59.8086
59.7704
59.7535
59.7810
59.8157
59.7406
59.6608
59.6833
59.7634
59.8190
59.8140
59.7736
59.7654
59.7821
59.8158
59.8558
59.8297
59.7672
59.7541
59.8132
59.8931
59.9415
59.9216
59.9050
59.9380
60.17
60.487
59.9980
59.9326
59.9468
60.163
60.809
60.1359
60.1353
60.1160
60.1098
60.1471
60.2069
60.1646
60.677
60.647
60.1477
60.2124
60.2232
60.1691
60.1336
60.1211
60.1347
60.1672
60.1392
60.475
59.9929
60.102
60.535
60.853
60.453
60.26
59.9944
60.91
60.344
59.9833
59.8633
59.8012
59.8242
59.8717
59.9043
59.8975
59.8607
59.8208
59.8109
59.8453
59.8512
59.7516
59.6906
59.7485
59.8372
59.8793
59.8528
59.8274
59.8363
59.8648
59.9087
59.9403
59.8921
59.8466
59.8668
59.9379
60.142
60.403
60.140
60.113
60.635
60.1284
60.1516
60.808
60.328
60.719
60.1420
60.2013
60.2415
60.2364
60.2165
60.2271
60.2736
60.3020
60.2271
60.1642
60.2052
60.2874
60.3312
60.3080
60.2646
60.2409
60.2345
60.2641
60.2911
60.2231
60.1343
60.1155
60.1481
60.1817
60.1704
60.1128
60.755
60.798
60.1043
60.1015
60.44
59.8966
59.8750
59.9174
59.9586
59.9842
59.9578
59.9125
59.8788
59.8932
59.9387
59.8936
59.7970
59.7848
59.8588
59.9210
59.9354
59.8994
59.8827
59.8936
59.9206
59.9653
59.9644
59.8995
59.8726
59.9243
60.8
60.691
60.645
60.494
60.717
60.1296
60.1830
60.1513
60.704
60.651
60.1270
60.1867
60.2465
60.2652
60.2455
60.2285
60.2470
60.3035
60.2898
60.1870
60.1527
60.2209
60.2887
60.3056
60.2573
60.2144
60.1948
60.1984
60.2319
60.2293
60.1414
60.738
60.818
60.1178
60.1440
60.1109
60.568
60.373
60.496
60.741
60.379
59.9122
59.8246
59.8330
59.8756
59.9152
59.9144
59.8737
59.8306
59.8071
59.8304
59.8548
59.7772
59.7026
59.7359
59.8224
59.8676
59.8577
59.8219
59.8195
59.8401
59.8757
59.9153
59.8787
59.8190
59.8238
59.8901
59.9740
60.188
59.9942
59.9779
60.116
60.745
60.1119
60.539
59.9861
60.85
60.743
60.1357
60.1909
60.1944
60.1701
60.1640
60.2101
60.2677
60.2114
60.1223
60.1309
60.2125
60.2669
60.2637
60.2175
60.1834
60.1750
60.1942
60.2224
60.1787
60.842
60.445
60.732
60.1137
60.1231
60.704
60.263
60.213
60.365
60.484
59.9772
59.8597
59.8140
59.8520
59.8996
59.9257
59.9080
59.8692
59.8341
59.8279
59.8701
59.8620
59.7565
59.7082
59.7698
59.8471
59.8776
59.8429
59.8147
59.8239
59.8519
59.8992
59.9231
59.8711
59.8290
59.8576
59.9292
60.118
60.287
60.77
60.171
60.678
60.1289
60.1360
60.557
60.236
60.697
60.1402
60.2029
60.2392
60.2243
60.1990
60.2072
60.2596
60.2857
60.2045
60.1487
60.1958
60.2756
60.3116
60.2867
60.2472
60.2290
60.2321
60.2654
60.2812
60.1985
60.1170
60.1125
60.1561
60.1871
60.1677
60.1092
60.786
60.813
60.1003
60.897
59.9774
59.8784
59.8702
59.9075
59.9467
59.9563
59.9227
59.8865
59.8595
59.8752
59.9140
59.8617
59.7688
59.7754
59.8547
59.9159
59.9245
59.8856
59.8725
59.8866
59.9148
59.9514
59.9314
59.8680
59.8555
59.8991
59.9735
60.300
60.174
59.9999
60.228
60.845
60.1336
60.965
60.156
60.117
60.751
60.1382
60.1985
60.2113
60.1953
60.1805
60.2088
60.2714
60.2438
60.1435
60.1229
60.1921
60.2514
60.2625
60.2051
60.1650
60.1492
60.1536
60.1769
60.1591
60.641
59.9964
60.113
60.501
60.723
60.354
59.9877
59.9680
59.9771
59.9928
59.9517
59.8266
59.7427
59.7581
59.8046
59.8376
59.8330
59.7911
59.7440
59.7240
59.7571
59.7808
59.6957
59.6143
59.6384
59.7167
59.7652
59.7524
59.7148
59.7147
59.7401
59.7817
59.8234
59.7858
59.7288
59.7440
59.8099
59.8872
59.9254
59.9003
59.8977
59.9348
59.9907
60.222
59.9555
59.8979
59.9256
59.9882
60.458
60.987
60.1010
60.812
60.748
60.1148
60.1668
60.1169
60.291
60.391
60.1225
60.1802
60.1803
60.1326
60.1016
60.930
60.1095
60.1416
60.1048
60.121
59.9685
59.9941
60.340
60.438
59.9916
59.9435
59.9281
59.9404
59.9551
59.8952
59.7699
59.7143
59.7440
59.7937
59.8279
59.8214
59.7823
59.7468
59.7460
59.7862
59.7824
59.6877
59.6360
59.6888
59.7694
59.8065
59.7731
59.7366
59.7382
59.7687
59.8160
59.8449
59.7914
59.7445
59.7696
59.8426
59.9224
59.9470
59.9271
59.9301
59.9817
60.445
60.563
59.9801
59.9378
59.9800
60.591
60.1231
60.1662
60.1569
60.1377
60.1413
60.1967
60.2285
60.1420
60.670
60.1040
60.1814
60.2145
60.1948
60.1528
60.1359
60.1332
60.1544
60.1700
60.1078
60.238
60.84
60.542
60.950
60.880
60.282
59.9889
59.9869
60.27
60.25
59.9019
59.7861
59.7602
59.7942
59.8366
59.8546
59.8303
59.7967
59.7683
59.7770
59.8170
59.7787
59.6799
59.6547
59.7261
59.7932
59.8108
59.7737
59.7553
59.7631
59.7979
59.8463
59.8579
59.7975
59.7748
59.8195
59.8934
59.9584
59.9467
59.9271
59.9389
59.9924
60.491
60.279
59.9452
59.9327
59.9895
60.576
60.1263
60.1546
60.1422
60.1260
60.1484
60.2151
60.2194
60.1304
60.933
60.1560
60.2302
60.2558
60.2145
60.1735
60.1577
60.1600
60.1898
60.1952
60.1016
60.323
60.354
60.764
60.1103
60.775
60.293
60.110
60.229
60.431
60.177
59.8962
59.8092
59.8191
59.8698
59.9131
59.9193
59.8896
59.8580
59.8327
59.8594
59.8911
59.8227
59.7412
59.7650
59.8453
59.8933
59.8795
59.8378
59.8294
59.8525
59.8963
59.9434
59.9139
59.8568
59.8628
59.9245
60.89
60.620
60.455
60.360
60.786
60.1416
60.1755
60.1179
60.548
60.749
60.1385
60.2018
60.2536
60.2557
60.2404
60.2366
60.2719
60.3262
60.2741
60.1849
60.1914
60.2661
60.3241
60.3266
60.2761
60.2438
60.2371
60.2558
60.2862
60.2488
60.1490
60.1095
60.1369
60.1808
60.1950
60.1483
60.1060
60.965
60.1099
60.1232
60.556
59.9290
59.8706
59.9033
59.9448
59.9767
59.9731
59.9489
59.9235
59.9408
60.14
60.135
59.9248
59.8977
59.9794
60.786
60.1246
60.1027
60.1027
60.1374
60.1926
60.2723
60.3190
60.2914
60.2923
60.3722
60.4953
60.6190
60.6625
60.6896
60.7626
60.8831
61.34
61.484
61.375
61.1089
61.2540
61.4089
61.5590
61.6614
61.7459
61.8426
61.9895
62.1418
62.1832
62.2258
62.3833
62.5886
62.7556
62.8472
62.9363
63.545
63.2055
63.3853
63.5048
63.5628
63.6795
63.8784
64.894
64.2507
64.3753
64.5317
64.7235
64.9218
65.361
65.1060
65.2670
65.4994
65.7434
65.9517
66.1248
66.2939
66.5048
66.7533
66.9016
67.461
67.3020
67.5987
67.8546
68.531
68.2782
68.5297
68.8088
69.600
69.2468
69.4851
69.7908
70.1198
70.3817
70.6307
70.9177
71.2281
71.4673
71.6640
71.9429
72.2675
72.6128
72.9061
73.1574
73.4363
73.7650
73.9920
74.2202
74.5543
74.8931
75.1832
75.4401
75.7091
76.109
76.2918
76.5090
76.7776
77.1003
77.4164
77.6765
77.9565
78.2640
78.5346
78.7276
78.9977
79.3344
79.6812
79.9830
80.2500
80.5559
80.8660
81.1030
81.4214
81.7862
82.1147
82.4191
82.7314
83.709
83.3750
83.6478
83.9835
84.3725
84.7185
85.403
85.3910
85.7159
85.9847
86.3167
86.6889
87.725
87.3998
87.7097
88.643
88.3264
88.6350
89.15
89.3489
89.6661
89.9703
90.3015
90.5788
90.8547
91.1910
91.5400
91.8542
92.1718
92.4873
92.7239
93.51
93.3474
93.7020
94.175
94.3131
94.6371
94.9025
95.2398
95.6102
95.9471
96.2746
96.6137
96.9348
97.2282
97.5778
97.9625
98.3061
98.6520
98.9910
99.2713
99.6051
99.9772
100.3504
100.6762
101.233
101.3092
101.6193
101.9861
102.3300
102.6484
102.9595
103.2564
103.5333
103.8607
104.2022
104.5222
104.8441
105.1256
105.3803
105.6998
106.615
106.3884
106.6878
106.9894
107.2709
107.6209
107.9715
108.3046
108.6330
108.9491
109.2413
109.5912
109.9721
110.3215
110.6657
110.9573
111.2689
111.6241
112.0
112.3241
112.6647
112.9385
113.2721
113.6227
113.9567
114.2673
114.5738
114.8447
115.1626
115.4985
115.8231
116.1387
116.3873
116.6654
117.54
117.3490
117.6513
117.9520
118.2373
118.5870
118.9306
119.2617
119.5903
119.8830
120.1994
120.5752
120.9327
121.2765
121.5685
121.8803
122.2389
122.6088
122.9411
123.2546
123.5509
123.8962
124.2376
124.5486
124.8593
125.1329
125.4459
125.7790
126.1043
126.4068
126.6597
126.9627
127.3159
127.6289
127.9345
128.2026
128.5316
128.8711
129.2075
129.5338
129.8231
130.1470
130.5138
130.8647
131.1844
131.4756
131.8051
132.1752
132.5114
132.8278
133.1163
133.4503
133.7958
134.1089
134.4059
134.6871
135.102
135.3397
135.6553
135.9139
136.1934
136.5290
136.8576
137.1701
137.4426
137.7677
138.1093
138.4406
138.7559
139.430
139.3872
139.7426
140.859
140.3807
140.6925
141.547
141.3961
141.7227
142.42
142.3321
142.6759
142.9919
143.2836
143.5677
143.8946
144.2231
144.5233
144.7783
145.808
145.4249
145.7351
146.98
146.3162
146.6531
146.9881
147.3081
147.5989
147.9434
148.2978
148.6306
148.9208
149.2416
149.6031
149.9391
150.2366
150.5400
150.8784
151.2048
151.5056
151.7810
152.949
152.4207
152.7219
152.9782
153.2837
153.6229
153.9344
154.2077
154.5182
154.8508
155.1785
155.4798
155.7846
156.1393
156.4851
156.7834
157.861
157.4399
157.7798
158.890
158.3845
158.7137
159.421
159.3457
159.6238
159.9410
160.2688
160.5597
160.8235
161.1426
161.4657
161.7645
162.513
162.3788
162.7156
163.303
163.3191
163.6669
164.200
164.3295
164.6277
164.9763
165.3220
165.6378
165.9361
166.2719
166.5958
166.8894
167.1737
167.4994
167.8281
168.1006
168.3833
168.7189
169.314
169.3119
169.6211
169.9590
170.2847
170.5763
170.9044
171.2594
171.5799
171.8769
172.2159
172.5572
172.8676
173.1688
173.5051
173.8296
174.1172
174.4072
174.7313
175.449
175.3090
175.6114
175.9392
176.2398
176.5287
176.8516
177.1844
177.4890
177.7917
178.1418
178.4743
178.7695
179.951
179.4377
179.7535
180.493
180.3777
180.6976
180.9856
181.2766
181.5999
181.9053
182.1734
182.4877
182.8026
183.887
183.3898
183.7227
184.472
184.3388
184.6739
185.216
185.3278
185.6339
185.9804
186.3103
186.6045
186.9281
187.2528
187.5456
187.8337
188.1574
188.4640
188.7321
189.469
189.3643
189.6518
189.9522
190.2836
190.6021
190.8899
191.2291
191.5689
191.8717
192.1879
192.5242
192.8352
193.1380
193.4714
193.7744
194.550
194.3677
194.6896
194.9647
195.2503
195.5678
195.8620
196.1556
196.4809
196.8002
197.896
197.4234
197.7597
198.550
198.3668
198.7047
199.150
199.3152
199.6443
199.9462
200.2217
200.5333
200.8454
201.1151
201.4242
201.7335
202.138
202.3167
202.6476
202.9534
203.2549
203.5994
203.9124
204.2114
204.5483
204.8695
205.1607
205.4860
205.7976
206.770
206.3800
206.6970
206.9660
207.2625
207.5752
207.8600
208.1596
208.4845
208.7882
209.893
209.4296
209.7378
210.367
210.3710
210.6863
210.9815
211.3080
211.6081
211.8842
212.2005
212.5044
212.7709
213.849
213.3855
213.6702
213.9898
214.3103
214.5975
214.9286
215.2578
215.5526
215.8805
216.2072
216.5004
216.8229
217.1360
217.4166
217.7225
218.331
218.3008
218.6113
218.9204
219.2058
219.5199
219.8373
220.1255
220.4579
220.7839
221.811
221.4089
221.7322
222.221
222.3444
222.6507
222.9309
223.2430
223.5395
223.8085
224.1231
224.4207
224.7078
225.292
225.3373
225.6350
225.9678
226.2730
226.5775
226.9094
227.2117
227.5162
227.8331
228.1200
228.4189
228.7261
228.9971
229.3074
229.6112
229.8935
230.2094
230.5203
230.8146
231.1507
231.4616
231.7629
232.947
232.4011
232.7073
233.274
233.3138
233.6122
233.9208
234.1919
234.5026
234.8045
235.894
235.4077
235.7129
236.95
236.3425
236.6480
236.9604
237.2867
237.5799
237.8981
238.2040
238.4841
238.7955
239.869
239.3652
239.6778
239.9674
240.2673
240.5860
240.8766
241.2046
241.5189
241.8143
242.1429
242.4502
242.7535
243.679
243.3511
243.6533
243.9530
244.2241
244.5357
244.8290
245.1206
245.4405
245.7349
246.567
246.3752
246.6707
246.9975
247.3039
247.6053
247.9225
248.2073
248.5116
248.8092
249.812
249.3899
249.6800
249.9791
250.2930
250.5817
250.9082
251.2153
251.5154
251.8416
252.1383
252.4526
252.7544
253.339
253.3428
253.6253
253.9164
254.2185
254.5003
254.8124
255.1175
255.4215
255.7464
256.390
256.3576
256.6672
256.9628
257.2818
257.5692
257.8692
258.1636
258.4362
258.7447
259.312
259.3341
259.6440
259.9340
260.2611
260.5637
260.8748
261.1888
261.4783
261.7956
262.855
262.3803
262.6798
262.9517
263.2598
263.5444
263.8437
264.1547
264.4449
264.7675
265.675
265.3778
265.6881
265.9790
266.2969
266.5827
266.8791
267.1703
267.4494
267.7576
268.412
268.3481
268.6501
268.9503
269.2695
269.5631
269.8847
270.1880
270.4914
270.7968
271.783
271.3868
271.6654
271.9622
272.2541
272.5416
272.8566
273.1463
273.4671
273.7688
274.720
274.3872
274.6751
274.9901
275.2734
275.5676
275.8585
276.1383
276.4372
276.7152
277.237
277.3192
277.6271
277.9364
278.2281
278.5416
278.8274
279.1385
279.4291
279.7174
280.75
280.2757
280.5745
280.8554
281.1603
281.4554
281.7571
282.647
282.3581
282.6738
282.9638
283.2736
283.5603
283.8502
284.1439
284.4155
284.7149
284.9902
285.2951
285.5894
285.8992
286.2037
286.4990
286.8111
287.960
287.4065
287.6904
287.9880
288.2722
288.5560
288.8487
289.1343
289.4450
289.7295
290.503
290.3522
290.6616
290.9650
291.2665
291.5699
291.8517
292.1542
292.4164
292.7007
292.9718
293.2610
293.5462
293.8315
294.1213
294.3920
294.6825
294.9464
295.2316
295.4857
295.7530
296.74
296.2602
296.5115
296.7586
297.231
297.2683
297.5413
297.7873
298.482
298.2917
298.5449
298.7808
299.92
299.2367
299.4450
299.6690
299.8749
300.1055
300.3132
300.5442
300.7545
300.9697
301.1769
301.3795
301.5725
301.7494
301.9364
302.931
302.2686
302.4216
302.5991
302.7590
302.9366
303.975
303.2550
303.4075
303.5527
303.6974
303.8157
303.9458
304.461
304.1709
304.2765
304.4009
304.5080
304.6289
304.7421
304.8493
304.9545
305.458
305.1434
305.2146
305.3027
305.3571
305.4341
305.4923
305.5684
305.6368
305.7157
305.7860
305.8489
305.9151
305.9683
306.298
306.618
306.1122
306.1328
306.1746
306.1972
306.2379
306.2704
306.3113
306.3501
306.3803
306.4145
306.4313
306.4623
306.4665
306.4867
306.4786
306.4906
306.4888
306.5030
306.5142
306.5305
306.5447
306.5519
306.5652
306.5610
306.5732
306.5582
306.5603
306.5341
306.5289
306.5091
306.5030
306.4993
306.4996
306.4999
306.4895
306.4889
306.4687
306.4698
306.4410
306.4301
306.3918
306.3728
306.3448
306.3265
306.3095
306.2928
306.2835
306.2627
306.2574
306.2276
306.2174
306.1804
306.1602
306.1187
306.923
306.558
306.289
306.117
305.9895
305.9766
305.9495
305.9416
305.9088
305.8975
305.8597
305.8336
305.7921
305.7608
305.7262
305.6918
305.6697
305.6396
305.6300
305.5997
305.5917
305.5604
305.5461
305.5089
305.4819
305.4435
305.4062
305.3715
305.3341
305.3178
305.2871
305.2790
305.2496
305.2416
305.2151
305.2028
305.1720
305.1441
305.1139
305.763
305.475
305.70
304.9958
304.9667
304.9663
304.9433
304.9357
304.9161
304.9045
304.8830
304.8521
304.8260
304.7857
304.7630
304.7237
304.7150
304.6883
304.6882
304.6713
304.6615
304.6458
304.6326
304.6147
304.5827
304.5641
304.5219
304.5049
304.4683
304.4603
304.4388
304.4399
304.4313
304.4207
304.4125
304.3965
304.3894
304.3589
304.3474
304.3075
304.2949
304.2666
304.2557
304.2397
304.2360
304.2320
304.2227
304.2191
304.1952
304.1924
304.1640
304.1540
304.1196
304.1038
304.774
304.640
304.540
304.430
304.405
304.262
304.284
304.68
304.78
303.9819
303.9711
303.9409
303.9217
303.8998
303.8815
303.8759
303.8594
303.8623
303.8451
303.8497
303.8305
303.8311
303.8099
303.7928
303.7687
303.7431
303.7215
303.6938
303.6925
303.6696
303.6750
303.6586
303.6593
303.6461
303.6435
303.6271
303.6050
303.5871
303.5564
303.5395
303.5083
303.5069
303.4881
303.4955
303.4837
303.4821
303.4781
303.4727
303.4624
303.4356
303.4223
303.3869
303.3793
303.3489
303.3438
303.3283
303.3330
303.3292
303.3243
303.3217
303.3068
303.3036
303.2749
303.2681
303.2318
303.2198
303.1946
303.1873
303.1771
303.1723
303.1698
303.1606
303.1631
303.1405
303.1434
303.1176
303.1106
303.811
303.675
303.469
303.305
303.255
303.159
303.235
303.86
303.149
302.9973
303.6
302.9829
302.9721
302.9507
302.9292
302.9147
302.8941
302.8960
302.8788
302.8915
302.8804
302.8886
302.8815
302.8843
302.8723
302.8553
302.8436
302.8175
302.8067
302.7787
302.7829
302.7695
302.7813
302.7754
302.7785
302.7797
302.7770
302.7731
302.7525
302.7464
302.7156
302.7131
302.6919
302.6917
302.6830
302.6920
302.6950
302.6938
302.6970
302.6859
302.6898
302.6652
302.6637
302.6344
302.6276
302.6107
302.6065
302.6038
302.6016
302.6072
302.6002
302.6109
302.5966
302.6062
302.5856
302.5813
302.5610
302.5510
302.5366
302.5219
302.5212
302.5115
302.5254
302.5161
302.5268
302.5169
302.5251
302.5132
302.5027
302.4870
302.4670
302.4569
302.4342
302.4399
302.4255
302.4396
302.4314
302.4406
302.4393
302.4401
302.4326
302.4149
302.4066
302.3761
302.3720
302.3493
302.3497
302.3386
302.3495
302.3491
302.3497
302.3499
302.3403
302.3421
302.3183
302.3121
302.2803
302.2758
302.2577
302.2568
302.2495
302.2496
302.2551
302.2521
302.2610
302.2444
302.2519
302.2307
302.2303
302.2096
302.1972
302.1799
302.1701
302.1732
302.1654
302.1741
302.1634
302.1766
302.1666
302.1774
302.1635
302.1563
302.1412
302.1250
302.1165
302.964
302.1006
302.870
302.1046
302.987
302.1087
302.1071
302.1126
302.1078
302.932
302.863
302.598
302.553
302.353
302.455
302.369
302.507
302.508
302.576
302.606
302.567
302.617
302.437
302.445
302.179
302.152
301.9988
302.28
302.18
302.86
302.148
302.141
302.255
302.144
302.264
302.79
302.60
301.9836
301.9785
301.9630
301.9549
301.9596
301.9526
301.9628
301.9577
301.9737
301.9633
301.9724
301.9602
301.9548
301.9423
301.9290
301.9167
301.8984
301.9098
301.9007
301.9189
301.9134
301.9254
301.9258
301.9365
301.9352
301.9230
301.9186
301.8975
301.8959
301.8743
301.8816
301.8762
301.8938
301.8959
301.8994
301.9006
301.8967
301.9006
301.8800
301.8781
301.8473
301.8425
301.8250
301.8255
301.8222
301.8256
301.8290
301.8250
301.8341
301.8198
301.8290
301.8083
301.8065
301.7835
301.7749
301.7602
301.7511
301.7536
301.7472
301.7609
301.7531
301.7671
301.7575
301.7710
301.7625
301.7566
301.7407
301.7267
301.7209
301.7031
301.7107
301.6976
301.7150
301.7109
301.7213
301.7203
301.7261
301.7204
301.7064
301.7036
301.6783
301.6750
301.6545
301.6629
301.6549
301.6716
301.6737
301.6773
301.6848
301.6826
301.6870
301.6676
301.6678
301.6420
301.6411
301.6271
301.6298
301.6285
301.6336
301.6418
301.6409
301.6561
301.6448
301.6571
301.6415
301.6421
301.6229
301.6156
301.6031
301.5962
301.6015
301.5915
301.6063
301.5995
301.6151
301.6086
301.6201
301.6092
301.6027
301.5932
301.5754
301.5668
301.5482
301.5582
301.5469
301.5659
301.5623
301.5726
301.5749
301.5788
301.5772
301.5614
301.5548
301.5290
301.5289
301.5084
301.5130
301.5042
301.5163
301.5206
301.5231
301.5294
301.5203
301.5261
301.5067
301.5079
301.4799
301.4754
301.4592
301.4562
301.4578
301.4586
301.4660
301.4581
301.4702
301.4594
301.4739
301.4565
301.4509
301.4349
301.4277
301.4132
301.3993
301.4049
301.3938
301.4104
301.4019
301.4136
301.4077
301.4154
301.4070
301.3984
301.3889
301.3647
301.3568
301.3362
301.3450
301.3325
301.3460
301.3453
301.3543
301.3568
301.3558
301.3561
301.3384
301.3370
301.3093
301.3091
301.2892
301.2944
301.2940
301.3045
301.3105
301.3139
301.3250
301.3161
301.3306
301.3143
301.3165
301.2953
301.2934
301.2837
301.2825
301.2868
301.2847
301.2983
301.2952
301.3128
301.3034
301.3182
301.3064
301.3048
301.2934
301.2794
301.2690
301.2529
301.2608
301.2497
301.2685
301.2628
301.2734
301.2696
301.2770
301.2742
301.2594
301.2513
301.2239
301.2236
301.2037
301.2106
301.1994
301.2140
301.2195
301.2274
301.2310
301.2254
301.2328
301.2137
301.2127
301.1872
301.1873
301.1697
301.1720
301.1748
301.1777
301.1848
301.1798
301.1920
301.1806
301.1927
301.1730
301.1681
301.1487
301.1414
301.1247
301.1109
301.1151
301.1058
301.1189
301.1094
301.1223
301.1142
301.1222
301.1115
301.1015
301.902
301.694
301.614
301.404
301.480
301.369
301.557
301.538
301.631
301.682
301.698
301.690
301.520
301.496
301.227
301.242
301.36
301.75
301.16
301.119
301.176
301.166
301.243
301.137
301.211
301.10
301.18
300.9777
300.9727
300.9595
300.9535
300.9542
300.9500
300.9618
300.9573
300.9731
300.9619
300.9736
300.9635
300.9595
300.9456
300.9299
300.9225
300.9101
300.9205
300.9075
300.9260
300.9211
300.9360
300.9390
300.9474
300.9439
300.9327
300.9291
300.9047
300.9043
300.8836
300.8934
300.8883
300.9029
300.9057
300.9114
300.9167
300.9135
300.9208
300.9005
300.9021
300.8746
300.8747
300.8634
300.8656
300.8659
300.8678
300.8771
300.8746
300.8923
300.8815
300.8929
300.8783
300.8798
300.8645
300.8557
300.8441
300.8347
300.8427
300.8353
300.8527
300.8457
300.8605
300.8575
300.8687
300.8617
300.8515
300.8410
300.8182
300.8158
300.7964
300.8038
300.7917
300.8099
300.8079
300.8144
300.8171
300.8150
300.8168
300.7966
300.7952
300.7680
300.7677
300.7491
300.7525
300.7504
300.7616
300.7680
300.7658
300.7799
300.7715
300.7835
300.7673
300.7702
300.7499
300.7458
300.7366
300.7294
300.7359
300.7331
300.7467
300.7378
300.7559
300.7491
300.7594
300.7507
300.7457
300.7341
300.7140
300.7086
300.6917
300.7012
300.6898
300.7078
300.7058
300.7145
300.7180
300.7215
300.7205
300.7040
300.7005
300.6742
300.6764
300.6580
300.6634
300.6614
300.6766
300.6826
300.6860
300.6983
300.6917
300.7027
300.6855
300.6890
300.6691
300.6678
300.6564
300.6530
300.6564
300.6570
300.6674
300.6601
300.6765
300.6678
300.6809
300.6682
300.6649
300.6522
300.6371
300.6286
300.6154
300.6263
300.6157
300.6347
300.6307
300.6466
300.6494
300.6567
300.6561
300.6455
300.6432
300.6204
300.6239
300.6064
300.6159
300.6109
300.6297
300.6385
300.6466
300.6539
300.6512
300.6627
300.6462
300.6499
300.6237
300.6217
300.6100
300.6130
300.6138
300.6142
300.6244
300.6202
300.6353
300.6250
300.6372
300.6203
300.6169
300.6003
300.5914
300.5822
300.5670
300.5763
300.5664
300.5834
300.5763
300.5908
300.5884
300.5986
300.5934
300.5819
300.5752
300.5520
300.5522
300.5335
300.5421
300.5324
300.5491
300.5511
300.5598
300.5631
300.5592
300.5630
300.5454
300.5461
300.5179
300.5153
300.5001
300.5007
300.4989
300.5026
300.5081
300.5048
300.5189
300.5071
300.5173
300.4990
300.4988
300.4784
300.4712
300.4593
300.4484
300.4548
300.4458
300.4624
300.4557
300.4700
300.4655
300.4745
300.4703
300.4620
300.4530
300.4314
300.4273
300.4069
300.4154
300.4049
300.4205
300.4193
300.4263
300.4288
300.4269
300.4253
300.4039
300.4017
300.3735
300.3724
300.3515
300.3531
300.3521
300.3588
300.3644
300.3631
300.3736
300.3628
300.3760
300.3578
300.3562
300.3350
300.3278
300.3192
300.3126
300.3174
300.3111
300.3276
300.3224
300.3406
300.3379
300.3503
300.3427
300.3382
300.3291
300.3143
300.3092
300.2882
300.3007
300.2939
300.3111
300.3068
300.3156
300.3203
300.3211
300.3222
300.3027
300.2999
300.2717
300.2747
300.2576
300.2620
300.2586
300.2696
300.2761
300.2772
300.2888
300.2784
300.2904
300.2752
300.2775
300.2570
300.2533
300.2420
300.2376
300.2464
300.2454
300.2594
300.2520
300.2724
300.2690
300.2832
300.2755
300.2741
300.2634
300.2473
300.2458
300.2300
300.2399
300.2305
300.2528
300.2498
300.2602
300.2644
300.2688
300.2718
300.2568
300.2538
300.2297
300.2327
300.2124
300.2188
300.2154
300.2276
300.2335
300.2351
300.2454
300.2364
300.2449
300.2272
300.2294
300.2032
300.1946
300.1803
300.1740
300.1772
300.1701
300.1797
300.1688
300.1818
300.1728
300.1813
300.1652
300.1546
300.1414
300.1210
300.1106
300.898
300.936
300.779
300.979
300.933
300.1002
300.983
300.973
300.939
300.757
300.733
300.421
300.388
300.200
300.259
300.204
300.292
300.341
300.362
300.470
300.379
300.500
300.322
300.349
300.132
300.119
300.7
299.9965
300.6
299.9987
300.158
300.89
300.256
300.186
300.334
300.248
300.213
300.121
299.9956
299.9915
299.9762
299.9897
299.9806
300.6
300.2
300.153
300.211
300.291
300.292
300.154
300.181
299.9931
299.9942
299.9786
299.9889
299.9894
300.23
300.106
300.166
300.306
300.263
300.411
300.211
300.259
300.88
300.57
299.9970
299.9958
300.24
299.9995
300.155
300.105
300.288
300.220
300.367
300.253
300.220
300.126
299.9966
299.9891
299.9732
299.9865
299.9747
299.9943
299.9933
300.60
300.78
300.108
300.108
299.9927
299.9916
299.9632
299.9605
299.9402
299.9451
299.9391
299.9491
299.9541
299.9521
299.9585
299.9473
299.9591
299.9376
299.9354
299.9113
299.9066
299.8904
299.8835
299.8858
299.8768
299.8891
299.8828
299.8977
299.8870
299.8967
299.8835
299.8761
299.8638
299.8453
299.8359
299.8150
299.8242
299.8110
299.8277
299.8230
299.8338
299.8366
299.8364
299.8353
299.8159
299.8142
299.7855
299.7857
299.7654
299.7710
299.7643
299.7733
299.7744
299.7722
299.7827
299.7713
299.7788
299.7572
299.7551
299.7326
299.7233
299.7076
299.6981
299.7015
299.6945
299.7075
299.6991
299.7178
299.7109
299.7179
299.7062
299.7003
299.6885
299.6691
299.6632
299.6416
299.6490
299.6375
299.6561
299.6551
299.6631
299.6680
299.6709
299.6719
299.6523
299.6533
299.6266
299.6295
299.6145
299.6183
299.6168
299.6231
299.6291
299.6304
299.6441
299.6323
299.6434
299.6268
299.6287
299.6091
299.6034
299.5928
299.5830
299.5900
299.5851
299.6004
299.5939
299.6112
299.6074
299.6195
299.6117
299.6020
299.5918
299.5729
299.5701
299.5476
299.5528
299.5434
299.5624
299.5636
299.5700
299.5752
299.5739
299.5774
299.5577
299.5559
299.5285
299.5282
299.5137
299.5167
299.5152
299.5195
299.5282
299.5292
299.5442
299.5330
299.5472
299.5330
299.5322
299.5170
299.5110
299.4999
299.4869
299.4989
299.4927
299.5100
299.5027
299.5188
299.5209
299.5296
299.5242
299.5125
299.5049
299.4805
299.4789
299.4594
299.4681
299.4601
299.4745
299.4780
299.4840
299.4900
299.4830
299.4902
299.4687
299.4677
299.4402
299.4366
299.4229
299.4247
299.4282
299.4260
299.4319
299.4283
299.4457
299.4349
299.4472
299.4336
299.4289
299.4139
299.4024
299.3959
299.3804
299.3884
299.3767
299.3969
299.3923
299.4072
299.4115
299.4189
299.4174
299.4053
299.4023
299.3778
299.3790
299.3599
299.3719
299.3663
299.3816
299.3876
299.3938
299.4031
299.3967
299.4072
299.3891
299.3929
299.3705
299.3697
299.3565
299.3567
299.3631
299.3623
299.3771
299.3732
299.3930
299.3879
299.4023
299.3923
299.3907
299.3780
299.3614
299.3565
299.3424
299.3550
299.3417
299.3606
299.3601
299.3732
299.3776
299.3842
299.3826
299.3663
299.3666
299.3426
299.3438
299.3245
299.3294
299.3267
299.3377
299.3424
299.3424
299.3543
299.3455
299.3582
299.3397
299.3377
299.3145
299.3068
299.2959
299.2859
299.2887
299.2811
299.2945
299.2842
299.2977
299.2889
299.2955
299.2843
299.2722
299.2574
299.2344
299.2246
299.2002
299.2071
299.1936
299.2070
299.2037
299.2098
299.2154
299.2110
299.2097
299.1875
299.1860
299.1567
299.1559
299.1400
299.1401
299.1417
299.1473
299.1560
299.1537
299.1713
299.1621
299.1762
299.1622
299.1633
299.1470
299.1387
299.1300
299.1208
299.1325
299.1251
299.1459
299.1428
299.1632
299.1682
299.1799
299.1783
299.1701
299.1714
299.1524
299.1539
299.1374
299.1517
299.1481
299.1706
299.1783
299.1893
299.2011
299.2005
299.2141
299.1995
299.2072
299.1842
299.1881
299.1788
299.1838
299.1911
299.1950
299.2091
299.2081
299.2333
299.2278
299.2448
299.2363
299.2365
299.2289
299.2167
299.2110
299.2000
299.2156
299.2084
299.2303
299.2285
299.2443
299.2519
299.2632
299.2649
299.2522
299.2513
299.2292
299.2366
299.2207
299.2337
299.2331
299.2507
299.2603
299.2693
299.2862
299.2828
299.2987
299.2838
299.2904
299.2703
299.2691
299.2601
299.2585
299.2646
299.2601
299.2755
299.2687
299.2884
299.2817
299.2926
299.2794
299.2697
299.2572
299.2386
299.2308
299.2077
299.2145
299.2031
299.2211
299.2167
299.2241
299.2288
299.2307
299.2313
299.2120
299.2095
299.1801
299.1794
299.1647
299.1696
299.1660
299.1720
299.1803
299.1828
299.1971
299.1849
299.1974
299.1814
299.1848
299.1679
299.1622
299.1523
299.1433
299.1531
299.1463
299.1653
299.1586
299.1765
299.1767
299.1884
299.1804
299.1696
299.1649
299.1455
299.1465
299.1287
299.1384
299.1331
299.1545
299.1621
299.1732
299.1824
299.1842
299.1954
299.1779
299.1827
299.1583
299.1657
299.1591
299.1652
299.1708
299.1797
299.1954
299.1978
299.2219
299.2170
299.2344
299.2254
299.2279
299.2188
299.2115
299.2047
299.1939
299.2100
299.2056
299.2283
299.2279
299.2469
299.2544
299.2687
299.2690
299.2591
299.2591
299.2391
299.2463
299.2330
299.2477
299.2490
299.2706
299.2814
299.2893
299.3046
299.3050
299.3215
299.3085
299.3158
299.2979
299.2996
299.2937
299.2980
299.3065
299.3102
299.3265
299.3216
299.3426
299.3375
299.3538
299.3428
299.3373
299.3251
299.3079
299.2990
299.2805
299.2878
299.2754
299.2953
299.2923
299.3013
299.3051
299.3082
299.3067
299.2910
299.2903
299.2615
299.2633
299.2475
299.2551
299.2538
299.2656
299.2705
299.2733
299.2895
299.2851
299.2984
299.2781
299.2816
299.2649
299.2627
299.2550
299.2498
299.2560
299.2543
299.2732
299.2711
299.2910
299.2890
299.3067
299.3029
299.2999
299.2958
299.2830
299.2827
299.2688
299.2864
299.2830
299.3067
299.3161
299.3337
299.3459
299.3548
299.3660
299.3568
299.3678
299.3500
299.3614
299.3547
299.3679
299.3787
299.3972
299.4120
299.4194
299.4437
299.4443
299.4687
299.4593
299.4652
299.4551
299.4562
299.4536
299.4526
299.4666
299.4660
299.4913
299.4924
299.5165
299.5244
299.5461
299.5459
299.5438
299.5451
299.5313
299.5382
299.5283
299.5480
299.5477
299.5716
299.5808
299.5984
299.6138
299.6216
299.6344
299.6211
299.6270
299.6083
299.6172
299.6095
299.6174
299.6236
299.6345
299.6515
299.6541
299.6728
299.6662
299.6857
299.6751
299.6730
299.6592
299.6529
299.6462
299.6394
299.6521
299.6431
299.6625
299.6608
299.6820
299.6813
299.6919
299.6900
299.6800
299.6762
299.6567
299.6570
299.6401
299.6537
299.6504
299.6697
299.6740
299.6832
299.6946
299.6958
299.7056
299.6909
299.6951
299.6703
299.6727
299.6630
299.6686
299.6727
299.6768
299.6879
299.6885
299.7079
299.7008
299.7178
299.7050
299.7056
299.6942
299.6869
299.6784
299.6685
299.6798
299.6715
299.6936
299.6928
299.7122
299.7178
299.7329
299.7329
299.7260
299.7281
299.7098
299.7142
299.7010
299.7162
299.7175
299.7399
299.7502
299.7641
299.7791
299.7817
299.7976
299.7853
299.7954
299.7776
299.7845
299.7789
299.7897
299.8017
299.8109
299.8303
299.8356
299.8639
299.8663
299.8878
299.8829
299.8903
299.8873
299.8845
299.8841
299.8792
299.9001
299.9013
299.9307
299.9345
299.9594
299.9704
299.9890
299.9978
299.9948
300.10
299.9867
299.9953
299.9868
300.46
300.72
300.318
300.437
300.569
300.706
300.719
300.830
300.673
300.742
300.514
300.491
300.369
300.384
300.403
300.407
300.501
300.458
300.648
300.546
300.647
300.447
300.399
300.235
300.87
299.9948
299.9783
299.9830
299.9680
299.9846
299.9773
299.9877
299.9828
299.9887
299.9826
299.9653
299.9556
299.9255
299.9229
299.9021
299.9092
299.9006
299.9121
299.9153
299.9230
299.9320
299.9273
299.9346
299.9145
299.9191
299.8955
299.8953
299.8810
299.8815
299.8842
299.8867
299.9004
299.8985
299.9175
299.9126
299.9276
299.9171
299.9191
299.9121
299.9048
299.9005
299.8917
299.9079
299.9032
299.9288
299.9309
299.9514
299.9595
299.9737
299.9765
299.9698
299.9735
299.9562
299.9621
299.9501
299.9687
299.9718
299.9950
300.87
300.244
300.423
300.485
300.654
300.537
300.650
300.481
300.568
300.510
300.606
300.736
300.831
300.1048
300.1135
300.1380
300.1360
300.1619
300.1604
300.1697
300.1659
300.1670
300.1695
300.1684
300.1892
300.1867
300.2171
300.2252
300.2506
300.2652
300.2870
300.2917
300.2889
300.2968
300.2852
300.2961
300.2879
300.3079
300.3104
300.3369
300.3531
300.3676
300.3840
300.3927
300.4092
300.3978
300.4093
300.3922
300.3981
300.3937
300.4064
300.4140
300.4237
300.4400
300.4475
300.4716
300.4690
300.4909
300.4833
300.4897
300.4821
300.4815
300.4783
300.4767
300.4920
300.4887
300.5152
300.5165
300.5381
300.5440
300.5638
300.5658
300.5621
300.5617
300.5490
300.5559
300.5449
300.5609
300.5561
300.5831
300.5925
300.6063
300.6182
300.6266
300.6375
300.6266
300.6358
300.6133
300.6186
300.6105
300.6245
300.6291
300.6413
300.6547
300.6587
300.6777
300.6765
300.6956
300.6811
300.6885
300.6770
300.6752
300.6682
300.6683
300.6804
300.6810
300.7020
300.6990
300.7213
300.7241
300.7433
300.7388
300.7369
300.7329
300.7216
300.7198
300.7092
300.7270
300.7202
300.7435
300.7472
300.7655
300.7758
300.7843
300.7859
300.7768
300.7824
300.7618
300.7664
300.7522
300.7633
300.7645
300.7815
300.7904
300.7969
300.8113
300.8102
300.8240
300.8074
300.8130
300.7970
300.8000
300.7916
300.7922
300.7986
300.8031
300.8207
300.8182
300.8384
300.8348
300.8520
300.8437
300.8449
300.8359
300.8249
300.8196
300.8084
300.8204
300.8122
300.8349
300.8324
300.8488
300.8526
300.8642
300.8623
300.8521
300.8494
300.8286
300.8313
300.8131
300.8230
300.8177
300.8373
300.8433
300.8502
300.8592
300.8623
300.8713
300.8530
300.8575
300.8318
300.8335
300.8253
300.8279
300.8302
300.8350
300.8451
300.8473
300.8654
300.8564
300.8699
300.8540
300.8573
300.8447
300.8376
300.8266
300.8191
300.8307
300.8250
300.8443
300.8393
300.8576
300.8583
300.8710
300.8643
300.8583
300.8536
300.8343
300.8327
300.8173
300.8291
300.8198
300.8407
300.8446
300.8579
300.8636
300.8675
300.8734
300.8598
300.8605
300.8344
300.8345
300.8198
300.8280
300.8256
300.8349
300.8398
300.8422
300.8587
300.8511
300.8636
300.8449
300.8492
300.8332
300.8311
300.8219
300.8172
300.8233
300.8209
300.8388
300.8342
300.8514
300.8480
300.8636
300.8553
300.8511
300.8424
300.8293
300.8261
300.8117
300.8241
300.8132
300.8342
300.8317
300.8469
300.8556
300.8634
300.8623
300.8503
300.8489
300.8263
300.8286
300.8104
300.8216
300.8192
300.8312
300.8397
300.8459
300.8549
300.8518
300.8647
300.8468
300.8515
300.8282
300.8285
300.8197
300.8203
300.8230
300.8262
300.8391
300.8368
300.8548
300.8477
300.8647
300.8534
300.8538
300.8435
300.8330
300.8246
300.8160
300.8276
300.8169
300.8376
300.8330
300.8470
300.8487
300.8592
300.8526
300.8426
300.8363
300.8159
300.8156
300.7946
300.8014
300.7927
300.8116
300.8145
300.8205
300.8255
300.8232
300.8294
300.8125
300.8109
300.7819
300.7811
300.7693
300.7732
300.7721
300.7772
300.7848
300.7841
300.7995
300.7886
300.8005
300.7854
300.7866
300.7688
300.7606
300.7497
300.7399
300.7467
300.7396
300.7558
300.7492
300.7655
300.7623
300.7743
300.7678
300.7608
300.7510
300.7326
300.7319
300.7146
300.7247
300.7139
300.7336
300.7361
300.7471
300.7523
300.7537
300.7560
300.7413
300.7437
300.7160
300.7181
300.7042
300.7126
300.7113
300.7234
300.7312
300.7339
300.7484
300.7420
300.7560
300.7383
300.7409
300.7215
300.7201
300.7102
300.7076
300.7111
300.7087
300.7257
300.7177
300.7366
300.7336
300.7491
300.7372
300.7356
300.7265
300.7135
300.7078
300.6936
300.7076
300.6982
300.7210
300.7189
300.7344
300.7435
300.7517
300.7530
300.7417
300.7403
300.7196
300.7220
300.7076
300.7190
300.7162
300.7356
300.7418
300.7461
300.7572
300.7545
300.7675
300.7507
300.7545
300.7295
300.7287
300.7192
300.7178
300.7214
300.7218
300.7338
300.7311
300.7484
300.7380
300.7519
300.7398
300.7390
300.7220
300.7124
300.7039
300.6920
300.7016
300.6908
300.7097
300.7041
300.7191
300.7223
300.7323
300.7284
300.7174
300.7118
300.6905
300.6918
300.6736
300.6834
300.6769
300.6944
300.6981
300.7054
300.7154
300.7150
300.7193
300.7022
300.7073
300.6823
300.6825
300.6691
300.6763
300.6768
300.6804
300.6894
300.6877
300.7054
300.6978
300.7094
300.6936
300.6960
300.6808
300.6738
300.6636
300.6560
300.6628
300.6554
300.6741
300.6671
300.6842
300.6817
300.6941
300.6877
300.6812
300.6739
300.6539
300.6507
300.6322
300.6431
300.6346
300.6564
300.6551
300.6633
300.6712
300.6746
300.6771
300.6601
300.6644
300.6376
300.6380
300.6257
300.6332
300.6317
300.6415
300.6511
300.6524
300.6659
300.6597
300.6734
300.6561
300.6600
300.6413
300.6398
300.6319
300.6289
300.6355
300.6312
300.6473
300.6433
300.6643
300.6607
300.6744
300.6666
300.6647
300.6536
300.6388
300.6340
300.6165
300.6275
300.6196
300.6390
300.6351
300.6473
300.6547
300.6582
300.6563
300.6437
300.6430
300.6150
300.6171
300.6006
300.6056
300.5994
300.6155
300.6196
300.6230
300.6361
300.6293
300.6377
300.6211
300.6266
300.6038
300.6034
300.5906
300.5879
300.5913
300.5901
300.6025
300.5982
300.6184
300.6091
300.6204
300.6077
300.6057
300.5946
300.5802
300.5715
300.5558
300.5668
300.5591
300.5789
300.5731
300.5868
300.5926
300.5998
300.5940
300.5797
300.5757
300.5499
300.5511
300.5326
300.5372
300.5303
300.5478
300.5517
300.5567
300.5650
300.5589
300.5664
300.5489
300.5522
300.5256
300.5227
300.5082
300.5097
300.5119
300.5158
300.5269
300.5227
300.5398
300.5307
300.5446
300.5323
300.5331
300.5207
300.5096
300.5016
300.4906
300.4999
300.4928
300.5133
300.5075
300.5245
300.5274
300.5382
300.5357
300.5264
300.5217
300.5018
300.5042
300.4895
300.5025
300.4958
300.5173
300.5211
300.5319
300.5429
300.5435
300.5503
300.5347
300.5395
300.5155
300.5184
300.5046
300.5086
300.5130
300.5203
300.5284
300.5285
300.5455
300.5379
300.5545
300.5394
300.5417
300.5297
300.5248
300.5152
300.5082
300.5163
300.5109
300.5297
300.5264
300.5458
300.5457
300.5563
300.5526
300.5480
300.5405
300.5207
300.5195
300.5034
300.5164
300.5076
300.5269
300.5283
300.5408
300.5487
300.5503
300.5548
300.5389
300.5391
300.5112
300.5154
300.4998
300.5048
300.5032
300.5113
300.5210
300.5216
300.5317
300.5216
300.5363
300.5187
300.5204
300.4978
300.4923
300.4840
300.4803
300.4827
300.4766
300.4918
300.4854
300.5054
300.4994
300.5086
300.4993
300.4952
300.4863
300.4694
300.4619
300.4435
300.4559
300.4460
300.4650
300.4622
300.4735
300.4791
300.4839
300.4821
300.4651
300.4638
300.4386
300.4418
300.4229
300.4283
300.4222
300.4329
300.4406
300.4432
300.4544
300.4450
300.4547
300.4330
300.4353
300.4142
300.4068
300.3948
300.3948
300.4003
300.3951
300.4089
300.4055
300.4248
300.4191
300.4313
300.4216
300.4196
300.4104
300.3970
300.3919
300.3751
300.3853
300.3757
300.3973
300.3937
300.4055
300.4117
300.4186
300.4185
300.4053
300.4036
300.3777
300.3810
300.3655
300.3735
300.3694
300.3860
300.3923
300.3960
300.4084
300.4051
300.4159
300.3997
300.4057
300.3856
300.3859
300.3751
300.3761
300.3839
300.3867
300.4003
300.3957
300.4168
300.4114
300.4270
300.4158
300.4136
300.4022
300.3913
300.3844
300.3718
300.3818
300.3722
300.3943
300.3931
300.4064
300.4112
300.4197
300.4169
300.4057
300.4046
300.3793
300.3783
300.3621
300.3713
300.3669
300.3823
300.3845
300.3921
300.4060
300.4034
300.4101
300.3914
300.3957
300.3728
300.3725
300.3605
300.3610
300.3631
300.3668
300.3780
300.3744
300.3912
300.3836
300.3992
300.3865
300.3877
300.3736
300.3606
300.3539
300.3475
300.3583
300.3480
300.3670
300.3629
300.3782
300.3825
300.3931
300.3863
300.3755
300.3731
300.3519
300.3529
300.3348
300.3464
300.3399
300.3611
300.3659
300.3734
300.3843
300.3846
300.3921
300.3739
300.3775
300.3534
300.3552
300.3448
300.3465
300.3483
300.3542
300.3657
300.3640
300.3836
300.3739
300.3883
300.3771
300.3805
300.3644
300.3578
300.3511
300.3440
300.3560
300.3481
300.3665
300.3635
300.3821
300.3857
300.3975
300.3920
300.3862
300.3840
300.3634
300.3652
300.3482
300.3590
300.3528
300.3757
300.3820
300.3885
300.3984
300.4007
300.4065
300.3883
300.3920
300.3652
300.3667
300.3539
300.3591
300.3590
300.3664
300.3757
300.3744
300.3936
300.3858
300.3972
300.3799
300.3838
300.3683
300.3627
300.3543
300.3443
300.3520
300.3492
300.3692
300.3615
300.3800
300.3807
300.3943
300.3880
300.3806
300.3745
300.3566
300.3559
300.3401
300.3499
300.3390
300.3607
300.3654
300.3753
300.3811
300.3834
300.3853
300.3675
300.3681
300.3406
300.3389
300.3236
300.3316
300.3298
300.3395
300.3482
300.3485
300.3630
300.3555
300.3674
300.3492
300.3522
300.3347
300.3313
300.3222
300.3168
300.3205
300.3137
300.3320
300.3281
300.3446
300.3399
300.3533
300.3440
300.3386
300.3289
300.3119
300.3069
300.2883
300.3012
300.2900
300.3097
300.3109
300.3220
300.3267
300.3320
300.3360
300.3193
300.3211
300.2973
300.3011
300.2863
300.2935
300.2947
300.3067
300.3160
300.3182
300.3319
300.3252
300.3391
300.3239
300.3268
300.3071
300.3052
300.2960
300.2947
300.3019
300.2971
300.3115
300.3075
300.3275
300.3227
300.3356
300.3262
300.3223
300.3136
300.2985
300.2927
300.2763
300.2891
300.2800
300.2990
300.2959
300.3083
300.3145
300.3216
300.3208
300.3022
300.3019
300.2777
300.2790
300.2609
300.2671
300.2630
300.2761
300.2851
300.2876
300.2969
300.2901
300.3038
300.2862
300.2886
300.2667
300.2627
300.2529
300.2504
300.2571
300.2561
300.2678
300.2623
300.2812
300.2770
300.2888
300.2754
300.2734
300.2641
300.2503
300.2427
300.2266
300.2373
300.2266
300.2489
300.2456
300.2570
300.2622
300.2689
300.2669
300.2515
300.2476
300.2212
300.2255
300.2105
300.2177
300.2115
300.2242
300.2304
300.2343
300.2457
300.2386
300.2486
300.2294
300.2327
300.2111
300.2068
300.1944
300.1928
300.1974
300.1957
300.2091
300.2050
300.2216
300.2151
300.2295
300.2172
300.2138
300.2025
300.1925
300.1857
300.1715
300.1830
300.1726
300.1947
300.1922
300.2077
300.2109
300.2167
300.2196
300.2068
300.2053
300.1817
300.1845
300.1692
300.1813
300.1778
300.1926
300.2002
300.2060
300.2194
300.2160
300.2272
300.2095
300.2162
300.1956
300.1943
300.1829
300.1841
300.1885
300.1892
300.2064
300.2042
300.2219
300.2172
300.2331
300.2211
300.2219
300.2110
300.2019
300.1964
300.1842
300.1967
300.1861
300.2082
300.2064
300.2236
300.2290
300.2383
300.2365
300.2284
300.2273
300.2040
300.2048
300.1904
300.2006
300.1965
300.2135
300.2206
300.2272
300.2398
300.2369
300.2467
300.2276
300.2296
300.2069
300.2095
300.1983
300.1985
300.2003
300.2006
300.2138
300.2114
300.2290
300.2208
300.2350
300.2223
300.2216
300.2109
300.1993
300.1903
300.1784
300.1885
300.1800
300.1993
300.1956
300.2116
300.2152
300.2249
300.2221
300.2075
300.2030
300.1796
300.1820
300.1632
300.1708
300.1649
300.1812
300.1866
300.1921
300.1997
300.1958
300.2048
300.1846
300.1853
300.1613
300.1606
300.1487
300.1510
300.1525
300.1523
300.1632
300.1606
300.1787
300.1696
300.1806
300.1634
300.1626
300.1513
300.1381
300.1269
300.1162
300.1260
300.1153
300.1352
300.1307
300.1452
300.1481
300.1571
300.1520
300.1401
300.1383
300.1162
300.1148
300.965
300.1080
300.1010
300.1185
300.1243
300.1322
300.1415
300.1397
300.1480
300.1304
300.1366
300.1099
300.1103
300.1007
300.1072
300.1100
300.1130
300.1257
300.1262
300.1490
300.1458
300.1631
300.1494
300.1531
300.1438
300.1383
300.1346
300.1262
300.1379
300.1325
300.1584
300.1570
300.1755
300.1806
300.1937
300.1935
300.1871
300.1853
300.1646
300.1649
300.1502
300.1652
300.1575
300.1766
300.1818
300.1896
300.2013
300.2006
300.2061
300.1895
300.1962
300.1699
300.1703
300.1588
300.1615
300.1639
300.1691
300.1804
300.1790
300.1964
300.1886
300.2033
300.1896
300.1912
300.1766
300.1690
300.1625
300.1515
300.1590
300.1494
300.1700
300.1658
300.1820
300.1827
300.1909
300.1846
300.1747
300.1693
300.1464
300.1432
300.1238
300.1356
300.1271
300.1432
300.1470
300.1532
300.1618
300.1609
300.1644
300.1442
300.1465
300.1217
300.1244
300.1094
300.1120
300.1135
300.1214
300.1335
300.1329
300.1507
300.1419
300.1576
300.1447
300.1471
300.1327
300.1253
300.1188
300.1113
300.1210
300.1132
300.1333
300.1298
300.1479
300.1500
300.1645
300.1606
300.1525
300.1496
300.1317
300.1346
300.1199
300.1333
300.1259
300.1480
300.1557
300.1670
300.1770
300.1811
300.1899
300.1743
300.1796
300.1567
300.1631
300.1535
300.1614
300.1628
300.1698
300.1838
300.1866
300.2033
300.1957
300.2130
300.1983
300.2008
300.1858
300.1797
300.1708
300.1656
300.1755
300.1673
300.1854
300.1817
300.1996
300.1986
300.2091
300.2023
300.1968
300.1909
300.1723
300.1708
300.1538
300.1655
300.1552
300.1778
300.1823
300.1904
300.1964
300.1985
300.2038
300.1887
300.1900
300.1626
300.1650
300.1511
300.1562
300.1538
300.1609
300.1703
300.1694
300.1856
300.1762
300.1896
300.1712
300.1712
300.1548
300.1475
300.1367
300.1274
300.1361
300.1293
300.1468
300.1388
300.1557
300.1528
300.1637
300.1577
300.1479
300.1383
300.1199
300.1174
300.984
300.1102
300.1001
300.1171
300.1205
300.1303
300.1349
300.1354
300.1401
300.1233
300.1263
300.1017
300.1011
300.831
300.896
300.918
300.986
300.1065
300.1071
300.1214
300.1134
300.1259
300.1090
300.1112
300.958
300.906
300.827
300.775
300.852
300.794
300.989
300.959
300.1151
300.1133
300.1265
300.1216
300.1171
300.1104
300.919
300.903
300.747
300.897
300.829
300.1020
300.1056
300.1185
300.1272
300.1296
300.1329
300.1180
300.1208
300.959
300.991
300.865
300.921
300.924
300.1042
300.1138
300.1147
300.1326
300.1266
300.1395
300.1230
300.1296
300.1100
300.1046
300.977
300.947
300.1017
300.949
300.1132
300.1100
300.1298
300.1296
300.1440
300.1359
300.1306
300.1257
300.1071
300.1039
300.884
300.1015
300.948
300.1153
300.1166
300.1255
300.1337
300.1390
300.1412
300.1233
300.1250
300.999
300.997
300.844
300.901
300.871
300.941
300.1035
300.1043
300.1149
300.1040
300.1156
300.979
300.1004
300.800
300.724
300.600
300.555
300.600
300.519
300.681
300.603
300.761
300.735
300.851
300.748
300.645
300.567
300.370
300.310
300.122
300.246
300.137
300.332
300.346
300.435
300.485
300.521
300.560
300.385
300.374
300.103
300.123
300.1
300.81
300.80
300.160
300.242
300.280
300.458
300.389
300.493
300.345
300.414
300.243
300.200
300.122
300.112
300.226
300.220
300.386
300.327
300.540
300.580
300.753
300.694
300.669
300.625
300.470
300.471
300.325
300.453
300.386
300.649
300.689
300.778
300.854
300.925
300.965
300.827
300.879
300.645
300.678
300.572
300.679
300.686
300.838
300.935
300.988
300.1188
300.1141
300.1296
300.1149
300.1235
300.1080
300.1080
300.1019
300.993
300.1083
300.1085
300.1290
300.1246
300.1439
300.1436
300.1572
300.1510
300.1494
300.1404
300.1242
300.1204
300.1050
300.1180
300.1080
300.1291
300.1286
300.1410
300.1485
300.1519
300.1523
300.1379
300.1391
300.1131
300.1146
300.975
300.1034
300.1024
300.1152
300.1219
300.1217
300.1351
300.1293
300.1417
300.1224
300.1257
300.1047
300.1017
300.925
300.864
300.903
300.850
300.995
300.945
300.1136
300.1045
300.1144
300.1062
300.1015
300.927
300.759
300.715
300.552
300.684
300.607
300.819
300.823
300.942
300.995
300.1060
300.1081
300.929
300.940
300.690
300.733
300.576
300.670
300.669
300.813
300.923
300.946
300.1072
300.1032
300.1190
300.1028
300.1053
300.864
300.844
300.764
300.738
300.806
300.773
300.928
300.895
300.1109
300.1082
300.1216
300.1114
300.1117
300.1063
300.911
300.891
300.779
300.941
300.889
300.1121
300.1121
300.1281
300.1373
300.1475
300.1481
300.1355
300.1391
300.1167
300.1220
300.1104
300.1202
300.1197
300.1351
300.1465
300.1494
300.1636
300.1572
300.1709
300.1544
300.1605
300.1385
300.1335
300.1235
300.1235
300.1291
300.1254
300.1405
300.1355
300.1544
300.1502
300.1646
300.1527
300.1498
300.1419
300.1270
300.1229
300.1079
300.1189
300.1104
300.1347
300.1330
300.1454
300.1518
300.1600
300.1610
300.1477
300.1450
300.1174
300.1236
300.1116
300.1207
300.1148
300.1271
300.1346
300.1392
300.1509
300.1441
300.1539
300.1339
300.1398
300.1192
300.1136
300.1003
300.974
300.1011
300.1007
300.1133
300.1047
300.1211
300.1145
300.1250
300.1100
300.1037
300.929
300.748
300.671
300.496
300.589
300.464
300.667
300.636
300.748
300.794
300.835
300.804
300.669
300.656
300.368
300.349
300.167
300.239
300.163
300.285
300.341
300.365
300.478
300.402
300.482
300.266
300.315
300.119
300.75
299.9967
299.9949
299.9992
299.9967
300.123
300.70
300.260
300.191
300.322
300.206
300.172
300.72
299.9927
299.9870
299.9728
299.9853
299.9766
299.9995
299.9981
300.122
300.205
300.278
300.280
300.167
300.191
299.9936
299.9957
299.9811
299.9885
299.9882
300.53
300.113
300.129
300.264
300.218
300.314
300.143
300.211
299.9984
299.9937
299.9836
299.9837
299.9898
299.9864
299.9999
299.9977
300.177
300.117
300.223
300.133
300.116
300.33
299.9880
299.9811
299.9687
299.9830
299.9727
299.9927
299.9903
300.45
300.120
300.176
300.138
300.3
300.6
299.9748
299.9767
299.9597
299.9687
299.9630
299.9765
299.9843
299.9873
299.9981
299.9900
300.1
299.9803
299.9834
299.9603
299.9541
299.9436
299.9411
299.9462
299.9423
299.9553
299.9510
299.9687
299.9624
299.9740
299.9614
299.9577
299.9494
299.9315
299.9240
299.9065
299.9163
299.9043
299.9238
299.9194
299.9309
299.9334
299.9390
299.9361
299.9177
299.9147
299.8887
299.8895
299.8746
299.8833
299.8768
299.8890
299.8973
299.9005
299.9116
299.9042
299.9121
299.8921
299.8950
299.8731
299.8677
299.8529
299.8500
299.8575
299.8526
299.8681
299.8636
299.8818
299.8760
299.8896
299.8784
299.8744
299.8694
299.8535
299.8478
299.8324
299.8435
299.8337
299.8559
299.8577
299.8702
299.8744
299.8799
299.8813
299.8666
299.8656
299.8395
299.8415
299.8290
299.8385
299.8342
299.8463
299.8564
299.8591
299.8731
299.8658
299.8755
299.8568
299.8604
299.8403
299.8367
299.8235
299.8206
299.8292
299.8260
299.8405
299.8340
299.8518
299.8464
299.8596
299.8501
299.8432
299.8317
299.8149
299.8084
299.7920
299.8022
299.7875
299.8067
299.8070
299.8171
299.8210
299.8236
299.8218
299.8033
299.8034
299.7751
299.7749
299.7586
299.7636
299.7587
299.7679
299.7769
299.7784
299.7894
299.7800
299.7913
299.7713
299.7742
299.7532
299.7485
299.7369
299.7311
299.7352
299.7308
299.7464
299.7391
299.7564
299.7517
299.7641
299.7531
299.7468
299.7382
299.7200
299.7167
299.7014
299.7158
299.7065
299.7276
299.7299
299.7395
299.7466
299.7522
299.7548
299.7364
299.7390
299.7141
299.7178
299.7041
299.7093
299.7130
299.7236
299.7344
299.7360
299.7521
299.7467
299.7631
299.7481
299.7525
299.7365
299.7331
299.7235
299.7175
299.7267
299.7203
299.7395
299.7352
299.7525
299.7496
299.7625
299.7553
299.7483
299.7415
299.7229
299.7207
299.7044
299.7174
299.7100
299.7304
299.7331
299.7421
299.7496
299.7518
299.7543
299.7338
299.7355
299.7078
299.7060
299.6914
299.6911
299.6892
299.6955
299.7052
299.7028
299.7167
299.7056
299.7174
299.7005
299.7008
299.6806
299.6690
299.6577
299.6502
299.6561
299.6454
299.6626
299.6546
299.6687
299.6664
299.6730
299.6641
299.6536
299.6455
299.6203
299.6173
299.5956
299.6036
299.5941
299.6125
299.6130
299.6186
299.6244
299.6229
299.6273
299.6053
299.6043
299.5767
299.5762
299.5635
299.5648
299.5646
299.5683
299.5772
299.5759
299.5932
299.5819
299.5940
299.5783
299.5791
299.5663
299.5593
299.5523
299.5420
299.5531
299.5464
299.5693
299.5664
299.5834
299.5867
299.6006
299.5933
299.5817
299.5793
299.5577
299.5587
299.5429
299.5510
299.5417
299.5603
299.5673
299.5749
299.5823
299.5791
299.5871
299.5690
299.5719
299.5480
299.5481
299.5337
299.5357
299.5417
299.5440
299.5559
299.5509
299.5728
299.5673
299.5810
299.5690
299.5744
299.5653
299.5559
299.5526
299.5431
299.5567
299.5518
299.5782
299.5775
299.5944
299.6041
299.6166
299.6185
299.6104
299.6119
299.5896
299.5960
299.5846
299.5989
299.5967
299.6169
299.6288
299.6378
299.6530
299.6529
299.6658
299.6513
299.6614
299.6431
299.6431
299.6361
299.6405
299.6502
299.6554
299.6739
299.6727
299.6960
299.6929
299.7120
299.7071
299.7088
299.7017
299.6944
299.6933
299.6838
299.6984
299.6917
299.7166
299.7196
299.7378
299.7463
299.7563
299.7592
299.7463
299.7474
299.7263
299.7324
299.7169
299.7273
299.7279
299.7456
299.7566
299.7634
299.7775
299.7756
299.7901
299.7749
299.7829
299.7654
299.7677
299.7593
299.7597
299.7690
299.7729
299.7916
299.7898
299.8097
299.8071
299.8255
299.8179
299.8171
299.8080
299.7956
299.7944
299.7839
299.7995
299.7899
299.8120
299.8145
299.8267
299.8219
299.8143
299.8005
299.7759
299.7621
299.7190
299.7017
299.6643
299.6486
299.6235
299.6120
299.5926
299.5682
299.5508
299.5144
299.4968
299.4476
299.4156
299.3589
299.3204
299.2731
299.2295
299.1920
299.1445
299.1134
299.597
299.259
298.9684
298.9234
298.8545
298.7867
298.7131
298.6235
298.5471
298.4553
298.3902
298.3020
298.2364
298.1501
298.666
297.9778
297.8800
297.7853
297.6618
297.5550
297.4169
297.2971
297.1658
297.398
296.9120
296.7785
296.6582
296.5116
296.3836
296.2332
296.929
295.9284
295.7627
295.5939
295.4029
295.2296
295.384
294.8708
294.6822
294.5082
294.3240
294.1322
293.9510
293.7429
293.5479
293.3209
293.1078
292.8786
292.6488
292.4180
292.1747
291.9547
291.7114
291.4941
291.2564
291.193
290.7809
290.5271
290.2864
290.114
289.7541
289.4727
289.2003
288.9258
288.6448
288.3833
288.956
287.8385
287.5629
287.2913
287.218
286.7309
286.4557
286.1497
285.8612
285.5553
285.2469
284.9450
284.6294
284.3435
284.382
283.7515
283.4548
283.1517
282.8666
282.5549
282.2621
281.9438
281.6261
281.3117
280.9725
280.6655
280.3388
280.276
279.7174
279.3977
279.1028
278.7819
278.4830
278.1723
277.8515
277.5422
277.2040
276.8889
276.5521
276.2188
275.8947
275.5557
275.2478
274.9235
274.6103
274.2995
273.9737
273.6758
273.3544
273.376
272.7133
272.3679
272.493
271.7055
271.3750
271.434
270.7001
270.3865
270.582
269.7476
269.4324
269.1013
268.7998
268.4779
268.1589
267.8377
267.4903
267.1716
266.8302
266.4904
266.1633
265.8195
265.5027
265.1759
264.8473
264.5429
264.2139
263.9067
263.5911
263.2561
262.9461
262.6056
262.2773
261.9489
261.5933
261.2737
260.9385
260.6040
260.2914
259.9548
259.6540
259.3366
259.57
258.7039
258.3802
258.589
257.7348
257.3849
257.632
256.7224
256.3733
256.512
255.7066
255.3765
255.570
254.7169
254.4174
254.981
253.7682
253.4626
253.1311
252.8114
252.4877
252.1385
251.8151
251.4767
251.1224
250.8013
250.4610
250.1295
249.8161
249.4773
249.1751
248.8610
248.5294
248.2277
247.9111
247.5808
247.2700
246.9283
246.5967
246.2780
245.9212
245.5976
245.2685
244.9230
244.6104
244.2902
243.9617
243.6671
243.3424
243.210
242.7198
242.3905
242.739
241.7541
241.4049
241.819
240.7518
240.3907
240.713
239.7383
239.3976
239.852
238.7594
238.4302
238.1354
237.8116
237.4927
237.1906
236.8619
236.5428
236.2288
235.8820
235.5554
235.2363
234.8808
234.5579
234.2337
233.8906
233.5787
233.2679
232.9321
232.6402
232.3287
232.16
231.7065
231.3970
231.659
230.7617
230.4342
230.879
229.7743
229.4364
229.855
228.7722
228.4390
228.998
227.7925
227.4716
227.1408
226.8519
226.5321
226.2037
225.9104
225.5949
225.2610
224.9588
224.6301
224.2862
223.9723
223.6325
223.2732
222.9627
222.6347
222.2945
221.9866
221.6751
221.3385
221.487
220.7424
220.4123
220.1170
219.8168
219.4850
219.1777
218.8631
218.5225
218.2011
217.8917
217.5425
217.2111
216.9019
216.5683
216.2409
215.9426
215.6286
215.3093
215.275
214.7161
214.3912
214.1067
213.8061
213.4762
213.1766
212.8687
212.5288
212.2081
211.9006
211.5524
211.2207
210.9138
210.5827
210.2532
209.9570
209.6505
209.3178
209.323
208.7362
208.4145
208.1203
207.8329
207.5105
207.1894
206.8939
206.5724
206.2365
205.9347
205.6147
205.2611
204.9493
204.6410
204.3058
203.9837
203.6934
203.3871
203.653
202.7882
202.4882
202.1644
201.8776
201.5942
201.2752
200.9570
200.6682
200.3502
200.93
199.7038
199.3956
199.456
198.7199
198.4194
198.953
197.7667
197.4700
197.1701
196.8430
196.5489
196.2759
195.9619
195.6444
195.3639
195.735
194.7446
194.4348
194.1385
193.8135
193.4775
193.1737
192.8568
192.5004
192.1745
191.8719
191.5457
191.2148
190.9132
190.6166
190.2908
189.9808
189.7080
189.4057
189.824
188.7936
188.5083
188.1917
187.8744
187.5850
187.2747
186.9341
186.6148
186.3195
185.9887
185.6386
185.3391
185.334
184.7002
184.3751
184.810
183.7898
183.4678
183.1659
182.8963
182.5956
182.2741
181.9828
181.7035
181.4024
181.820
180.7873
180.4880
180.1602
179.8256
179.5267
179.2210
178.8660
178.5288
178.2386
177.9271
177.5866
177.2725
176.9855
176.6865
176.3553
176.596
175.7853
175.4785
175.1554
174.8631
174.5852
174.2841
173.9510
173.6435
173.3494
173.252
172.6802
172.3739
172.730
171.7310
171.3750
171.673
170.7599
170.4303
170.912
169.7828
169.4985
169.1926
168.8574
168.5696
168.2974
167.9888
167.6644
167.3753
167.975
166.7999
166.4662
166.1606
165.8785
165.5663
165.2202
164.8927
164.5969
164.2883
163.9270
163.5895
163.3025
162.9956
162.6617
162.3396
162.424
161.7512
161.4394
161.1088
160.8312
160.5617
160.2584
159.9299
159.6305
159.3625
159.703
158.7325
158.4180
158.1296
157.8241
157.4930
157.1456
156.8345
156.5360
156.2079
155.8373
155.5020
155.2128
154.8929
154.5447
154.2188
153.9191
153.6293
153.3195
152.9805
152.6814
152.4118
152.1210
151.7830
151.4639
151.1880
150.9038
150.6048
150.2644
149.9544
149.6640
149.3521
149.159
148.6682
148.3569
148.547
147.7319
147.3619
147.242
146.7364
146.4207
146.926
145.7367
145.4317
145.1456
144.8487
144.5335
144.2008
143.9207
143.6611
143.3780
143.423
142.7304
142.4546
142.1816
141.8934
141.5560
141.2505
140.9620
140.6742
140.3617
140.189
139.6889
139.3985
139.1014
138.7795
138.4108
138.784
137.7960
137.4961
137.1815
136.8332
136.5297
136.2441
135.9635
135.6677
135.3365
135.209
134.7595
134.4930
134.2075
133.8752
133.5738
133.3050
133.372
132.7467
132.4275
132.1085
131.8218
131.5393
131.2283
130.9030
130.5526
130.2444
129.9571
129.6577
129.3307
128.9598
128.6347
128.3539
128.586
127.7379
127.3943
127.687
126.7808
126.5011
126.2154
125.9144
125.5801
125.2829
125.330
124.7632
124.4757
124.1433
123.8314
123.5572
123.3075
123.136
122.7262
122.3819
122.875
121.8095
121.5281
121.2173
120.8962
120.5441
120.2305
119.9423
119.6478
119.3409
118.9767
118.6281
118.3305
118.566
117.7533
117.4399
117.983
116.7757
116.4959
116.2107
115.9269
115.6373
115.3187
114.9912
114.7182
114.4679
114.2007
113.9204
113.5910
113.2877
113.129
112.7627
112.4771
112.1869
111.8735
111.5399
111.2607
110.9830
110.6938
110.3830
110.741
109.7241
109.4077
109.1228
108.8238
108.5202
108.2013
107.8239
107.4839
107.1937
106.9239
106.6180
106.2941
105.9783
105.6268
105.3401
105.643
104.7811
104.4943
104.2032
103.8805
103.5562
103.2839
103.415
102.7672
102.4847
102.1925
101.8518
101.5581
101.2935
101.511
100.7759
100.4786
100.2000
99.8511
99.5502
99.2812
98.9901
98.6899
98.3763
98.762
97.7275
97.3888
97.967
96.8142
96.5098
96.1986
95.8843
95.5093
95.1527
94.8583
94.5839
94.2967
93.9728
93.6592
93.3476
92.9874
92.6947
92.4284
92.1403
91.8493
91.5568
91.2744
90.9561
90.6229
90.3437
90.1073
89.8452
89.5602
89.2852
89.37
88.6607
88.3561
88.913
87.8396
87.5767
87.2751
86.9782
86.7070
86.3585
86.337
85.7788
85.5089
85.2019
84.8926
84.5832
84.2918
83.9669
83.6015
83.2909
83.116
82.7184
82.3969
82.782
81.7793
81.4502
81.544
80.7160
80.4330
80.1577
79.8688
79.5537
79.2205
78.9252
78.6270
78.2664
77.9529
77.7024
77.4347
77.1244
76.8219
76.5263
76.2431
75.9647
75.6313
75.3050
75.351
74.7976
74.5517
74.2587
73.9619
73.6923
73.4242
73.920
72.7512
72.4705
72.2235
71.9800
71.7271
71.4300
71.1235
70.8433
70.5897
70.2608
69.8861
69.5988
69.3583
69.862
68.7675
68.4394
68.1264
67.8370
67.5749
67.2888
66.9291
66.5874
66.3092
66.531
65.7846
65.4670
65.1528
64.8617
64.5933
64.3180
63.9877
63.5992
63.2697
63.266
62.8072
62.5635
62.2967
62.94
61.7293
61.4636
61.2366
61.140
60.7058
60.3818
60.1570
60.144
59.8543
59.6420
59.3839
59.1474
58.9518
58.7819
58.6247
58.4611
58.2302
57.9829
57.8015
57.6941
57.5954
57.4766
57.2916
57.1050
56.9607
56.8543
56.7573
56.6242
56.4004
56.1998
56.771
56.62
55.9393
55.8661
55.7659
55.6405
55.5121
55.3968
55.3227
55.2639
55.1227
54.9211
54.7894
54.7626
54.7617
54.7069
54.5920
54.4407
54.3302
54.2527
54.1930
54.1488
54.944
53.9465
53.7712
53.6665
53.6363
53.6196
53.5807
53.4826
53.3621
53.2847
53.2402
53.2183
53.1918
53.992
52.9187
52.7883
52.7611
52.7917
52.8026
52.7835
52.7257
52.6606
52.6036
52.5656
52.5643
52.5803
52.5402
52.4045
52.3160
52.3511
52.4348
52.4779
52.4648
52.3964
52.3586
52.3609
52.3805
52.4193
52.4617
52.4274
52.3505
52.3210
52.3649
52.4498
52.5313
52.5577
52.5214
52.5062
52.5509
52.6234
52.6917
52.7095
52.6324
52.5678
52.6021
52.6844
52.7642
52.8352
52.8605
52.8466
52.8327
52.8459
52.9029
52.9770
52.9596
52.8580
52.8227
52.9050
53.109
53.648
53.618
53.148
52.9944
52.9976
53.319
53.864
53.1244
53.690
52.9938
52.9843
53.327
53.1008
53.1451
53.1211
53.747
53.621
53.928
53.1415
53.1803
53.1355
53.167
52.9550
52.9913
53.698
53.1222
53.1546
53.1347
53.1248
53.1195
53.1386
53.1962
53.2452
53.1897
53.1172
53.1454
53.2561
53.3577
53.4040
53.3865
53.3666
53.3912
53.4440
53.5095
53.5743
53.5990
53.5558
53.5434
53.5991
53.6961
53.8035
53.8677
53.8517
53.8511
53.9014
54.11
54.880
54.965
54.178
54.20
54.784
54.1827
54.2707
54.3506
54.3789
54.3789
54.3833
54.4355
54.5227
54.5784
54.5096
54.4495
54.4997
54.6161
54.6950
54.7182
54.6755
54.6543
54.6625
54.6936
54.7481
54.7880
54.7441
54.6705
54.6577
54.7126
54.7795
54.8092
54.7856
54.7513
54.7571
54.7961
54.8490
54.8669
54.7718
54.6627
54.6492
54.7129
54.7907
54.8380
54.8422
54.8219
54.8066
54.8133
54.8551
54.9149
54.8791
54.7918
54.7852
54.8852
54.9887
55.381
55.173
54.9903
55.99
55.579
55.1172
55.1792
55.1900
55.1437
55.1330
55.2008
55.2977
55.3885
55.4178
55.4033
55.4239
55.4846
55.5712
55.6294
55.5917
55.5246
55.5455
55.6303
55.7053
55.7793
55.8215
55.8196
55.8131
55.8344
55.9025
55.9658
55.9140
55.8377
55.8616
55.9590
56.333
56.632
56.331
56.89
56.126
56.306
56.704
56.1083
56.437
55.9588
55.9505
56.39
56.571
56.789
56.299
55.9857
55.9897
56.212
56.586
56.451
55.9222
55.8302
55.8415
55.9091
55.9707
56.99
55.9934
55.9607
55.9408
55.9566
56.136
56.419
55.9549
55.8878
55.9327
56.373
56.1093
56.1214
56.875
56.839
56.1115
56.1605
56.2170
56.2358
56.1824
56.1476
56.1839
56.2729
56.3611
56.4060
56.3963
56.3966
56.4447
56.5219
56.5838
56.5529
56.4834
56.4908
56.5681
56.6477
56.7179
56.7554
56.7620
56.7604
56.7787
56.8427
56.9055
56.8430
56.7646
56.7886
56.8898
56.9533
56.9605
56.9193
56.8889
56.8891
56.9124
56.9541
56.9738
56.8993
56.8269
56.8303
56.8909
56.9382
56.9475
56.8978
56.8665
56.8777
56.9188
56.9440
56.8814
56.7587
56.7035
56.7402
56.8027
56.8470
56.8569
56.8260
56.7968
56.7856
56.8178
56.8693
56.8240
56.7357
56.7259
56.8158
56.8995
56.9375
56.9085
56.8887
56.9114
56.9516
57.45
57.462
57.126
56.9664
56.9824
57.683
57.1605
57.2120
57.1907
57.1784
57.2234
57.2955
57.3544
57.3364
57.2605
57.2560
57.3206
57.3958
57.4636
57.4995
57.5065
57.4995
57.5131
57.5706
57.6248
57.5608
57.4846
57.5122
57.6127
57.6783
57.6869
57.6368
57.6119
57.6085
57.6300
57.6781
57.6724
57.5851
57.5248
57.5392
57.5903
57.6270
57.6073
57.5532
57.5266
57.5362
57.5680
57.5804
57.4961
57.3923
57.3710
57.4183
57.4730
57.5115
57.5010
57.4756
57.4471
57.4491
57.4961
57.5195
57.4237
57.3474
57.3908
57.4883
57.5490
57.5417
57.5022
57.4957
57.5200
57.5606
57.6174
57.6094
57.5522
57.5420
57.6005
57.6829
57.7574
57.7618
57.7461
57.7689
57.8347
57.9044
57.9183
57.8394
57.8063
57.8589
57.9328
58.1
58.564
58.624
58.445
58.442
58.908
58.1569
58.1169
58.261
58.231
58.1067
58.1800
58.1929
58.1460
58.1176
58.1112
58.1277
58.1628
58.1765
58.990
58.348
58.411
58.875
58.1221
58.1136
58.613
58.300
58.349
58.626
58.691
57.9810
57.8620
57.8297
57.8685
57.9144
57.9500
57.9358
57.9009
57.8723
57.8802
57.9278
57.9512
57.8617
57.7925
57.8376
57.9316
57.9880
57.9770
57.9436
57.9415
57.9622
58.133
58.704
58.585
57.9991
57.9821
58.464
58.1322
58.2036
58.1996
58.1820
58.2031
58.2594
58.3191
58.3175
58.2394
58.2219
58.2833
58.3612
58.4322
58.4748
58.4773
58.4731
58.4875
58.5501
58.5983
58.5311
58.4511
58.4780
58.5685
58.6312
58.6315
58.5830
58.5558
58.5447
58.5682
58.6103
58.5895
58.5064
58.4533
58.4705
58.5246
58.5566
58.5208
58.4703
58.4511
58.4727
58.5035
58.4865
58.3622
58.2792
58.2938
58.3503
58.3950
58.4089
58.3904
58.3610
58.3423
58.3621
58.4048
58.3545
58.2552
58.2412
58.3184
58.3905
58.4062
58.3678
58.3545
58.3738
58.4103
58.4621
58.4891
58.4367
58.4027
58.4454
58.5255
58.6052
58.6266
58.6048
58.6124
58.6632
58.7291
58.7569
58.6927
58.6488
58.6888
58.7591
58.8202
58.8739
58.8732
58.8598
58.8589
58.9073
58.9657
58.9204
58.8336
58.8364
58.9228
58.9889
58.9992
58.9519
58.9171
58.9082
58.9258
58.9667
58.9684
58.8855
58.8257
58.8325
58.8757
58.9075
58.8781
58.8246
58.7975
58.8126
58.8349
58.8170
58.6974
58.6017
58.5998
58.6482
58.6911
58.7077
58.6800
58.6525
58.6273
58.6432
58.6891
58.6534
58.5559
58.5391
58.6156
58.6877
58.7090
58.6670
58.6531
58.6629
58.6951
58.7372
58.7597
58.7015
58.6613
58.6901
58.7663
58.8484
58.8667
58.8448
58.8461
58.8964
58.9600
58.9789
58.9092
58.8666
58.9056
58.9757
59.449
59.1008
59.1058
59.846
59.797
59.1280
59.1882
59.1258
59.375
59.456
59.1257
59.1865
59.1907
59.1364
59.1032
59.921
59.1072
59.1426
59.1297
59.421
58.9831
58.9969
59.469
59.851
59.502
59.14
58.9805
58.9913
59.107
58.9881
58.8650
58.7751
58.7903
58.8482
58.8927
58.9073
58.8736
58.8315
58.8076
58.8327
58.8738
58.8219
58.7292
58.7270
58.8058
58.8758
58.8918
58.8539
58.8379
58.8524
58.8931
58.9468
58.9573
58.8993
58.8752
58.9264
59.141
59.902
59.952
59.747
59.888
59.1387
59.1921
59.1863
59.999
59.832
59.1440
59.2133
59.2768
59.3106
59.3074
59.2925
59.3048
59.3640
59.4021
59.3213
59.2508
59.2932
59.3794
59.4193
59.4037
59.3586
59.3389
59.3425
59.3699
59.4042
59.3588
59.2657
59.2418
59.2744
59.3156
59.3187
59.2616
59.2241
59.2195
59.2385
59.2536
59.1975
59.776
59.290
59.660
59.1219
59.1592
59.1459
59.1202
59.952
59.926
59.1323
59.1386
59.493
58.9882
59.331
59.1138
59.1543
59.1322
59.991
59.990
59.1245
59.1700
59.2162
59.1828
59.1333
59.1406
59.2080
59.2941
59.3331
59.3077
59.3072
59.3526
59.4221
59.4665
59.4098
59.3455
59.3692
59.4450
59.5123
59.5602
59.5628
59.5529
59.5507
59.5979
59.6494
59.6052
59.5002
59.4903
59.5696
59.6310
59.6418
59.5931
59.5593
59.5523
59.5701
59.6021
59.5820
59.4980
59.4387
59.4678
59.5158
59.5341
59.4897
59.4410
59.4156
59.4295
59.4473
59.4121
59.2868
59.2008
59.2114
59.2579
59.2990
59.3022
59.2642
59.2236
59.2072
59.2323
59.2676
59.1959
59.1029
59.1146
59.1952
59.2550
59.2579
59.2141
59.2046
59.2262
59.2592
59.3055
59.2970
59.2338
59.2166
59.2768
59.3593
59.4218
59.4072
59.3866
59.4050
59.4592
59.5096
59.4840
59.4040
59.3930
59.4584
59.5262
59.5902
59.6135
59.6083
59.5959
59.6179
59.6786
59.6846
59.5887
59.5521
59.6118
59.6838
59.7142
59.6859
59.6428
59.6215
59.6277
59.6608
59.6752
59.5991
59.5211
59.5158
59.5601
59.5937
59.5771
59.5272
59.4970
59.5072
59.5319
59.5292
59.4299
59.3291
59.3133
59.3588
59.4041
59.4293
59.4064
59.3720
59.3452
59.3599
59.4007
59.3571
59.2629
59.2438
59.3139
59.3849
59.4027
59.3646
59.3455
59.3600
59.3954
59.4375
59.4515
59.3987
59.3698
59.4042
59.4840
59.5596
59.5639
59.5478
59.5635
59.6171
59.6730
59.6684
59.5907
59.5676
59.6222
59.6916
59.7551
59.7876
59.7779
59.7516
59.7602
59.8211
59.8452
59.7570
59.7019
59.7513
59.8322
59.8671
59.8451
59.8058
59.7893
59.7894
59.8153
59.8374
59.7664
59.6835
59.6670
59.7023
59.7386
59.7324
59.6766
59.6416
59.6444
59.6651
59.6690
59.5694
59.4483
59.4272
59.4701
59.5094
59.5370
59.5104
59.4735
59.4405
59.4482
59.4891
59.4650
59.3653
59.3412
59.4139
59.4835
59.5071
59.4691
59.4458
59.4537
59.4796
59.5255
59.5407
59.4772
59.4412
59.4730
59.5470
59.6219
59.6324
59.6083
59.6173
59.6676
59.7232
59.7254
59.6427
59.6096
59.6654
59.7381
59.7983
59.8330
59.8271
59.8133
59.8225
59.8751
59.9022
59.8201
59.7550
59.7980
59.8746
59.9091
59.8825
59.8331
59.8123
59.8084
59.8291
59.8499
59.7855
59.6991
59.6856
59.7210
59.7586
59.7555
59.7005
59.6604
59.6596
59.6785
59.6805
59.5837
59.4716
59.4414
59.4818
59.5245
59.5527
59.5283
59.4937
59.4564
59.4522
59.4931
59.4681
59.3662
59.3307
59.3997
59.4762
59.4979
59.4572
59.4330
59.4500
59.4785
59.5270
59.5537
59.5045
59.4644
59.4975
59.5715
59.6420
59.6540
59.6338
59.6404
59.6911
59.7507
59.7599
59.6832
59.6442
59.6860
59.7503
59.8129
59.8524
59.8508
59.8361
59.8450
59.8907
59.9222
59.8443
59.7806
59.8173
59.8974
59.9396
59.9237
59.8818
59.8595
59.8581
59.8776
59.9051
59.8423
59.7576
59.7395
59.7753
59.8072
59.8027
59.7457
59.7023
59.6995
59.7222
59.7294
59.6443
59.5233
59.4943
59.5404
59.5887
59.6154
59.5947
59.5624
59.5383
59.5432
59.5868
59.5663
59.4651
59.4277
59.4928
59.5661
59.5958
59.5516
59.5234
59.5335
59.5692
59.6144
59.6342
59.5782
59.5387
59.5759
59.6540
59.7364
59.7478
59.7219
59.7338
59.7895
59.8567
59.8643
59.7827
59.7489
59.7998
59.8741
59.9423
59.9818
59.9718
59.9476
59.9582
60.181
60.514
59.9708
59.9009
59.9428
60.248
60.573
60.304
59.9866
59.9625
59.9643
59.9883
60.119
59.9443
59.8633
59.8476
59.8841
59.9213
59.9187
59.8659
59.8255
59.8292
59.8510
59.8511
59.7537
59.6422
59.6081
59.6411
59.6794
59.7086
59.6852
59.6477
59.6145
59.6188
59.6619
59.6287
59.5287
59.5055
59.5713
59.6423
59.6697
59.6328
59.6138
59.6280
59.6621
59.7027
59.7134
59.6566
59.6165
59.6507
59.7250
59.7936
59.7984
59.7777
59.7886
59.8394
59.8930
59.8813
59.8018
59.7708
59.8262
59.8977
59.9600
59.9851
59.9780
59.9600
59.9770
60.302
60.474
59.9526
59.8989
59.9546
60.317
60.566
60.281
59.9879
59.9669
59.9672
59.9898
60.54
59.9296
59.8452
59.8331
59.8726
59.9020
59.8818
59.8264
59.7934
59.7944
59.8185
59.8172
59.7108
59.6045
59.5899
59.6335
59.6699
59.6893
59.6616
59.6272
59.5977
59.6070
59.6428
59.5971
59.5074
59.4985
59.5710
59.6323
59.6449
59.5999
59.5862
59.6038
59.6374
59.6830
59.6852
59.6262
59.6015
59.6533
59.7287
59.7949
59.7934
59.7763
59.7921
59.8546
59.9130
59.8886
59.8055
59.7902
59.8501
59.9170
59.9790
59.9981
59.9795
59.9580
59.9807
60.465
60.551
59.9619
59.9188
59.9745
60.443
60.688
60.376
59.9984
59.9813
59.9888
60.192
60.353
59.9568
59.8821
59.8790
59.9163
59.9428
59.9191
59.8664
59.8397
59.8552
59.8778
59.8626
59.7464
59.6434
59.6404
59.6877
59.7290
59.7485
59.7186
59.6804
59.6587
59.6791
59.7241
59.6713
59.5805
59.5849
59.6631
59.7215
59.7258
59.6930
59.6929
59.7140
59.7464
59.7929
59.7786
59.7160
59.7058
59.7571
59.8358
59.8966
59.8873
59.8670
59.8932
59.9524
60.34
59.9696
59.8975
59.8944
59.9574
60.340
60.964
60.1075
60.913
60.840
60.1164
60.1768
60.1545
60.555
60.330
60.1006
60.1616
60.1704
60.1234
60.887
60.737
60.801
60.1114
60.1002
60.64
59.9409
59.9549
59.9935
60.121
59.9688
59.9230
59.9061
59.9120
59.9299
59.8903
59.7642
59.6942
59.7084
59.7557
59.7960
59.7941
59.7517
59.7092
59.6903
59.7281
59.7476
59.6596
59.5820
59.6034
59.6833
59.7311
59.7221
59.6879
59.6797
59.6998
59.7430
59.7929
59.7607
59.7060
59.7055
59.7667
59.8439
59.8874
59.8598
59.8469
59.8806
59.9443
59.9834
59.9233
59.8565
59.8702
59.9343
59.9977
60.572
60.585
60.334
60.242
60.669
60.1260
60.796
59.9923
59.9932
60.685
60.1191
60.1209
60.772
60.509
60.476
60.594
60.901
60.624
59.9698
59.9198
59.9405
59.9841
60.50
59.9522
59.9029
59.8942
59.9166
59.9341
59.8692
59.7466
59.6923
59.7215
59.7636
59.7961
59.7866
59.7588
59.7306
59.7270
59.7616
59.7733
59.6841
59.6292
59.6808
59.7600
59.8006
59.7710
59.7395
59.7377
59.7577
59.7968
59.8327
59.7911
59.7402
59.7608
59.8293
59.9062
59.9277
59.9077
59.9126
59.9622
60.268
60.479
59.9751
59.9321
59.9780
60.509
60.1130
60.1587
60.1574
60.1453
60.1498
60.1991
60.2330
60.1588
60.848
60.1140
60.1884
60.2245
60.2065
60.1707
60.1550
60.1556
60.1752
60.1934
60.1299
60.513
60.321
60.677
60.1088
60.1051
60.492
60.114
60.123
60.365
60.480
59.9483
59.8306
59.8053
59.8440
59.8896
59.9170
59.8921
59.8545
59.8180
59.8236
59.8642
59.8307
59.7350
59.7139
59.7810
59.8499
59.8670
59.8345
59.8178
59.8227
59.8570
59.9082
59.9225
59.8681
59.8421
59.8853
59.9613
60.317
60.250
59.9955
60.55
60.592
60.1089
60.947
60.114
59.9967
60.573
60.1221
60.1863
60.2171
60.2047
60.1862
60.2071
60.2652
60.2698
60.1740
60.1280
60.1898
60.2536
60.2774
60.2366
60.1962
60.1769
60.1781
60.2119
60.2112
60.1196
60.432
60.384
60.778
60.1044
60.711
60.128
59.9932
59.9990
60.133
59.9891
59.8712
59.7778
59.7772
59.8270
59.8701
59.8768
59.8464
59.8080
59.7829
59.8089
59.8408
59.7629
59.6692
59.6783
59.7574
59.8077
59.8019
59.7598
59.7542
59.7767
59.8135
59.8533
59.8314
59.7708
59.7638
59.8227
59.8988
59.9508
59.9343
59.9201
59.9489
60.36
60.504
59.9989
59.9291
59.9373
60.50
60.654
60.1216
60.1354
60.1163
60.1102
60.1408
60.1902
60.1538
60.582
60.485
60.1219
60.1806
60.1887
60.1517
60.1254
60.1127
60.1279
60.1593
60.1451
60.578
60.36
60.200
60.579
60.823
60.426
59.9892
59.9707
59.9833
60.3
59.9496
59.8223
59.7605
59.7876
59.8346
59.8664
59.8541
59.8189
59.7885
59.7787
59.8159
59.8269
59.7293
59.6647
59.7110
59.7947
59.8381
59.8194
59.7892
59.7896
59.8111
59.8488
59.8787
59.8411
59.7926
59.8151
59.8846
59.9551
59.9782
59.9568
59.9578
60.56
60.595
60.773
60.89
59.9633
60.37
60.732
60.1360
60.1817
60.1820
60.1647
60.1596
60.2082
60.2566
60.1884
60.1081
60.1276
60.1982
60.2380
60.2177
60.1683
60.1402
60.1400
60.1678
60.1947
60.1373
60.500
60.175
60.471
60.864
60.869
60.304
59.9879
59.9803
59.9954
60.99
59.9199
59.8041
59.7715
59.8069
59.8491
59.8743
59.8442
59.8034
59.7655
59.7687
59.8112
59.7881
59.6824
59.6437
59.7092
59.7803
59.8052
59.7694
59.7426
59.7479
59.7799
59.8320
59.8535
59.7959
59.7548
59.7920
59.8691
59.9422
59.9397
59.9128
59.9253
59.9779
60.301
60.274
59.9434
59.9210
59.9736
60.354
60.967
60.1290
60.1136
60.917
60.1022
60.1571
60.1756
60.885
60.328
60.863
60.1659
60.2023
60.1702
60.1354
60.1244
60.1246
60.1510
60.1636
60.809
60.34
60.20
60.406
60.717
60.515
59.9920
59.9572
59.9628
59.9865
59.9785
59.8692
59.7636
59.7528
59.7982
59.8433
59.8596
59.8278
59.7894
59.7683
59.7922
59.8311
59.7710
59.6786
59.6741
59.7501
59.8123
59.8240
59.7886
59.7766
59.7868
59.8207
59.8692
59.8560
59.7974
59.7828
59.8358
59.9113
59.9764
59.9670
59.9429
59.9660
60.306
60.830
60.524
59.9799
59.9842
60.475
60.1132
60.1780
60.1960
60.1876
60.1783
60.2017
60.2524
60.2292
60.1289
60.1034
60.1736
60.2351
60.2445
60.2008
60.1662
60.1550
60.1671
60.1995
60.1851
60.991
60.419
60.550
60.892
60.1068
60.667
60.173
60.6
60.75
60.237
59.9905
59.8683
59.7918
59.8096
59.8594
59.8922
59.8800
59.8430
59.8071
59.7901
59.8176
59.8349
59.7522
59.6806
59.7161
59.8000
59.8486
59.8319
59.8009
59.8008
59.8280
59.8683
59.9077
59.8655
59.8086
59.8224
59.8907
59.9710
60.46
59.9791
59.9694
60.86
60.677
60.1004
60.338
59.9762
60.87
60.797
60.1476
60.1958
60.1961
60.1772
60.1708
60.2176
60.2683
60.2187
60.1378
60.1486
60.2315
60.2773
60.2697
60.2265
60.2012
60.1898
60.2110
60.2458
60.1925
60.932
60.598
60.896
60.1213
60.1195
60.616
60.200
60.157
60.322
60.369
59.9600
59.8425
59.8036
59.8426
59.8874
59.9143
59.8926
59.8523
59.8107
59.8037
59.8432
59.8303
59.7285
59.6843
59.7422
59.8092
59.8447
59.8120
59.7881
59.7950
59.8189
59.8617
59.8804
59.8209
59.7801
59.8085
59.8752
59.9558
59.9633
59.9374
59.9448
59.9923
60.522
60.568
59.9705
59.9387
59.9890
60.523
60.1169
60.1487
60.1374
60.1187
60.1274
60.1749
60.1890
60.959
60.315
60.734
60.1505
60.1875
60.1602
60.1220
60.1018
60.1042
60.1303
60.1467
60.758
59.9971
59.9905
60.273
60.586
60.442
59.9878
59.9533
59.9527
59.9789
59.9793
59.8694
59.7554
59.7376
59.7818
59.8237
59.8459
59.8213
59.7896
59.7610
59.7675
59.7984
59.7545
59.6632
59.6518
59.7272
59.7921
59.8089
59.7725
59.7589
59.7766
59.8192
59.8698
59.8590
59.8012
59.7790
59.8279
59.9012
59.9683
59.9596
59.9374
59.9585
60.168
60.737
60.539
59.9764
59.9675
60.354
60.1032
60.1674
60.1820
60.1721
60.1654
60.1884
60.2474
60.2359
60.1431
60.1135
60.1793
60.2504
60.2725
60.2285
60.1881
60.1714
60.1807
60.2095
60.2015
60.1100
60.433
60.529
60.967
60.1307
60.1005
60.489
60.249
60.392
60.618
60.262
59.9021
59.8260
59.8430
59.8936
59.9264
59.9230
59.8849
59.8447
59.8286
59.8513
59.8722
59.7869
59.7130
59.7427
59.8235
59.8705
59.8536
59.8141
59.8165
59.8388
59.8826
59.9241
59.8944
59.8439
59.8511
59.9120
59.9885
60.245
60.29
59.9928
60.343
60.1014
60.1283
60.643
60.46
60.254
60.888
60.1435
60.1957
60.1967
60.1749
60.1627
60.2039
60.2576
60.1949
60.1092
60.1235
60.2011
60.2513
60.2477
60.2018
60.1763
60.1653
60.1759
60.2066
60.1684
60.722
60.287
60.557
60.881
60.943
60.443
59.9898
59.9797
59.9945
60.56
59.9347
59.8072
59.7592
59.7917
59.8353
59.8659
59.8454
59.8004
59.7636
59.7633
59.8069
59.8070
59.7089
59.6565
59.7149
59.7928
59.8270
59.7965
59.7672
59.7711
59.7944
59.8349
59.8506
59.7962
59.7571
59.7847
59.8549
59.9248
59.9363
59.9176
59.9260
59.9741
60.341
60.407
59.9596
59.9213
59.9709
60.453
60.1091
60.1423
60.1358
60.1185
60.1267
60.1796
60.2095
60.1250
60.583
60.993
60.1789
60.2185
60.1977
60.1535
60.1266
60.1206
60.1484
60.1681
60.1003
60.197
60.66
60.471
60.830
60.774
60.194
59.9872
59.9919
60.188
60.181
59.9103
59.8075
59.7961
59.8380
59.8710
59.8899
59.8620
59.8279
59.7968
59.8089
59.8457
59.8047
59.7054
59.6929
59.7687
59.8400
59.8619
59.8232
59.8092
59.8270
59.8622
59.9086
59.9059
59.8483
59.8274
59.8732
59.9472
60.108
60.61
59.9851
60.25
60.567
60.1044
60.810
60.67
60.5
60.581
60.1201
60.1791
60.1995
60.1882
60.1704
60.1860
60.2481
60.2427
60.1456
60.1158
60.1866
60.2572
60.2800
60.2400
60.2072
60.1904
60.1914
60.2227
60.2188
60.1361
60.691
60.685
60.1016
60.1199
60.842
60.339
60.129
60.244
60.474
60.147
59.9025
59.8220
59.8241
59.8688
59.9112
59.9205
59.8879
59.8471
59.8229
59.8453
59.8726
59.7901
59.7030
59.7255
59.8115
59.8662
59.8555
59.8126
59.8030
59.8200
59.8592
59.9022
59.8664
59.8137
59.8131
59.8671
59.9417
59.9919
59.9723
59.9620
59.9978
60.595
60.950
60.353
59.9710
59.9896
60.629
60.1287
60.1793
60.1779
60.1488
60.1398
60.1811
60.2336
60.1810
60.846
60.915
60.1707
60.2211
60.2209
60.1746
60.1430
60.1372
60.1591
60.1894
60.1496
60.546
60.96
60.366
60.786
60.890
60.365
59.9911
59.9797
59.9962
60.74
59.9380
59.8077
59.7573
59.7876
59.8313
59.8638
59.8415
59.8002
59.7620
59.7518
59.7868
59.7828
59.6894
59.6451
59.6996
59.7798
59.8133
59.7881
59.7575
59.7578
59.7839
59.8307
59.8543
59.7924
59.7459
59.7672
59.8352
59.9114
59.9290
59.9059
59.9076
59.9595
60.235
60.356
59.9580
59.9151
59.9563
60.285
60.952
60.1349
60.1273
60.1033
60.1113
60.1666
60.2065
60.1321
60.611
60.931
60.1680
60.2097
60.1894
60.1461
60.1182
60.1093
60.1275
60.1532
60.926
60.24
59.9812
60.154
60.500
60.453
59.9868
59.9481
59.9510
59.9731
59.9782
59.8805
59.7628
59.7466
59.7909
59.8320
59.8581
59.8327
59.7908
59.7576
59.7606
59.8024
59.7681
59.6676
59.6414
59.7136
59.7801
59.7986
59.7650
59.7450
59.7558
59.7889
59.8322
59.8413
59.7880
59.7596
59.8057
59.8790
59.9508
59.9491
59.9305
59.9482
60.54
60.592
60.446
59.9672
59.9486
60.51
60.730
60.1404
60.1646
60.1499
60.1274
60.1409
60.2020
60.2123
60.1174
60.737
60.1358
60.2132
60.2444
60.2117
60.1786
60.1679
60.1755
60.2053
60.2167
60.1292
60.539
60.509
60.915
60.1248
60.976
60.398
60.127
60.209
60.418
60.214
59.8976
59.8061
59.8062
59.8536
59.8917
59.8975
59.8621
59.8246
59.8069
59.8339
59.8691
59.7992
59.7088
59.7238
59.8025
59.8608
59.8601
59.8195
59.8126
59.8314
59.8683
59.9079
59.8782
59.8132
59.8028
59.8605
59.9373
59.9870
59.9662
59.9551
59.9849
60.425
60.889
60.448
59.9718
59.9870
60.561
60.1205
60.1764
60.1878
60.1646
60.1547
60.1863
60.2388
60.2010
60.1033
60.938
60.1670
60.2234
60.2308
60.1869
60.1587
60.1470
60.1592
60.1862
60.1586
60.669
60.121
60.293
60.634
60.808
60.363
59.9958
59.9832
59.9984
60.244
59.9744
59.8475
59.7868
59.8102
59.8567
59.8877
59.8827
59.8431
59.7968
59.7828
59.8214
59.8352
59.7451
59.6751
59.7187
59.8037
59.8485
59.8291
59.8005
59.8033
59.8268
59.8692
59.9082
59.8662
59.8175
59.8363
59.9106
59.9879
60.41
59.9780
59.9779
60.291
60.917
60.1119
60.355
59.9849
60.200
60.911
60.1548
60.1960
60.1940
60.1697
60.1745
60.2259
60.2657
60.1939
60.1288
60.1653
60.2403
60.2841
60.2739
60.2311
60.2054
60.2038
60.2284
60.2561
60.1954
60.1007
60.691
60.926
60.1354
60.1301
60.781
60.404
60.342
60.541
60.558
59.9648
59.8540
59.8309
59.8721
59.9169
59.9466
59.9229
59.8837
59.8497
59.8546
59.8930
59.8541
59.7583
59.7386
59.8102
59.8772
59.8941
59.8533
59.8356
59.8482
59.8783
59.9191
59.9245
59.8705
59.8447
59.8862
59.9640
60.376
60.370
60.172
60.397
60.940
60.1423
60.1294
60.472
60.262
60.806
60.1514
60.2189
60.2449
60.2259
60.2021
60.2135
60.2640
60.2672
60.1735
60.1311
60.1924
60.2610
60.2829
60.2422
60.2039
60.1868
60.1908
60.2190
60.2237
60.1399
60.640
60.663
60.1072
60.1352
60.1058
60.554
60.250
60.320
60.565
60.276
59.9069
59.8113
59.8076
59.8495
59.8826
59.8926
59.8599
59.8242
59.8036
59.8269
59.8633
59.7896
59.7001
59.7138
59.7944
59.8525
59.8518
59.8156
59.8068
59.8219
59.8590
59.8999
59.8805
59.8173
59.8033
59.8558
59.9359
59.9877
59.9704
59.9542
59.9826
60.407
60.806
60.346
59.9674
59.9778
60.376
60.996
60.1600
60.1729
60.1516
60.1466
60.1884
60.2424
60.2018
60.1164
60.1125
60.1859
60.2432
60.2431
60.1885
60.1547
60.1508
60.1648
60.1918
60.1585
60.691
60.206
60.453
60.870
60.1030
60.589
60.123
59.9993
60.204
60.386
59.9855
59.8627
59.8019
59.8254
59.8696
59.9053
59.8957
59.8637
59.8311
59.8242
59.8625
59.8675
59.7740
59.7170
59.7657
59.8464
59.8867
59.8622
59.8304
59.8372
59.8616
59.8998
59.9289
59.8834
59.8392
59.8648
59.9372
60.214
60.456
60.219
60.264
60.746
60.1372
60.1480
60.696
60.270
60.700
60.1352
60.1979
60.2370
60.2353
60.2179
60.2133
60.2638
60.3028
60.2264
60.1548
60.1931
60.2730
60.3194
60.3009
60.2545
60.2335
60.2327
60.2578
60.2783
60.2111
60.1302
60.1119
60.1466
60.1826
60.1647
60.1034
60.703
60.704
60.859
60.801
59.9840
59.8787
59.8556
59.8944
59.9262
59.9524
59.9279
59.8937
59.8668
59.8783
59.9205
59.8811
59.7808
59.7619
59.8391
59.9092
59.9190
59.8759
59.8591
59.8692
59.8994
59.9387
59.9349
59.8711
59.8465
59.8928
59.9693
60.372
60.345
60.104
60.307
60.873
60.1357
60.1136
60.409
60.302
60.879
60.1530
60.2131
60.2293
60.2116
60.2006
60.2327
60.2883
60.2777
60.1765
60.1408
60.2046
60.2655
60.2865
60.2386
60.1936
60.1739
60.1784
60.2104
60.2064
60.1114
60.399
60.502
60.959
60.1155
60.792
60.264
60.52
60.187
60.397
60.6
59.8730
59.7878
59.8007
59.8472
59.8786
59.8699
59.8338
59.7980
59.7764
59.7998
59.8231
59.7454
59.6637
59.6893
59.7686
59.8190
59.8102
59.7679
59.7648
59.7865
59.8275
59.8739
59.8448
59.7896
59.7880
59.8466
59.9184
59.9661
59.9493
59.9401
59.9746
60.343
60.746
60.181
59.9482
59.9651
60.306
60.942
60.1447
60.1461
60.1285
60.1249
60.1667
60.2177
60.1703
60.798
60.822
60.1697
60.2292
60.2375
60.1929
60.1552
60.1495
60.1680
60.2055
60.1722
60.674
60.145
60.343
60.767
60.951
60.423
59.9901
59.9793
60.36
60.177
59.9483
59.8201
59.7709
59.8029
59.8449
59.8823
59.8646
59.8220
59.7825
59.7766
59.8187
59.8254
59.7287
59.6697
59.7245
59.8008
59.8377
59.8114
59.7805
59.7776
59.7926
59.8391
59.8688
59.8160
59.7734
59.7981
59.8703
59.9481
59.9705
59.9515
59.9545
60.26
60.662
60.793
60.7
59.9586
59.9965
60.640
60.1325
60.1754
60.1693
60.1449
60.1532
60.2056
60.2439
60.1630
60.924
60.1216
60.1970
60.2405
60.2205
60.1748
60.1498
60.1423
60.1647
60.1964
60.1372
60.502
60.374
60.803
60.1183
60.1180
60.642
60.329
60.293
60.499
60.541
59.9538
59.8382
59.8093
59.8510
59.8920
59.9147
59.8886
59.8477
59.8159
59.8266
59.8675
59.8324
59.7334
59.7040
59.7749
59.8461
59.8578
59.8097
59.7939
59.8115
59.8469
59.8879
59.8839
59.8252
59.7983
59.8390
59.9156
59.9834
59.9724
59.9494
59.9653
60.146
60.641
60.483
59.9694
59.9499
60.69
60.733
60.1373
60.1623
60.1515
60.1386
60.1577
60.2219
60.2232
60.1249
60.817
60.1403
60.2125
60.2415
60.2000
60.1546
60.1368
60.1384
60.1705
60.1741
60.909
60.166
60.167
60.557
60.887
60.525
59.9979
59.9746
59.9852
60.42
59.9855
59.8665
59.7795
59.7880
59.8357
59.8775
59.8834
59.8553
59.8208
59.8044
59.8189
59.8503
59.7814
59.6922
59.7017
59.7837
59.8423
59.8369
59.7978
59.7958
59.8188
59.8585
59.9060
59.8793
59.8188
59.8160
59.8768
59.9552
60.119
59.9995
59.9970
60.330
60.955
60.1418
60.897
60.169
60.262
60.888
60.1495
60.2102
60.2155
60.1933
60.1844
60.2200
60.2717
60.2308
60.1426
60.1451
60.2231
60.2827
60.2926
60.2488
60.2169
60.2029
60.2155
60.2485
60.2171
60.1198
60.682
60.921
60.1292
60.1369
60.859
60.446
60.375
60.503
60.664
60.55
59.8801
59.8217
59.8515
59.8931
59.9243
59.9140
59.8788
59.8463
59.8380
59.8734
59.8793
59.7892
59.7376
59.7862
59.8625
59.9022
59.8755
59.8465
59.8521
59.8767
59.9234
59.9538
59.8988
59.8530
59.8775
59.9458
60.237
60.449
60.244
60.316
60.776
60.1326
60.1460
60.717
60.403
60.826
60.1524
60.2140
60.2517
60.2532
60.2362
60.2408
60.2870
60.3120
60.2346
60.1678
60.2064
60.2831
60.3192
60.2932
60.2426
60.2168
60.2129
60.2315
60.2490
60.1765
60.894
60.727
60.1092
60.1438
60.1317
60.796
60.475
60.500
60.718
60.689
59.9569
59.8473
59.8259
59.8691
59.9085
59.9245
59.8920
59.8466
59.8175
59.8273
59.8655
59.8190
59.7181
59.7033
59.7729
59.8379
59.8564
59.8206
59.8068
59.8197
59.8550
59.8958
59.8919
59.8251
59.8023
59.8559
59.9308
59.9973
59.9937
59.9782
59.9976
60.521
60.996
60.738
60.8
59.9910
60.480
60.1085
60.1676
60.1865
60.1749
60.1595
60.1758
60.2316
60.2258
60.1326
60.1033
60.1688
60.2361
60.2589
60.2221
60.1837
60.1702
60.1758
60.2098
60.2109
60.1257
60.526
60.545
60.968
60.1217
60.856
60.298
60.78
60.247
60.429
60.104
59.8898
59.8039
59.8127
59.8614
59.9026
59.8984
59.8662
59.8322
59.8154
59.8446
59.8747
59.8050
59.7290
59.7476
59.8212
59.8742
59.8656
59.8240
59.8158
59.8307
59.8664
59.9128
59.8858
59.8262
59.8297
59.8893
59.9699
60.169
60.3
59.9919
60.276
60.914
60.1284
60.738
60.142
60.298
60.1014
60.1672
60.2223
60.2215
60.1983
60.1920
60.2319
60.2887
60.2352
60.1393
60.1425
60.2201
60.2714
60.2739
60.2309
60.2010
60.1849
60.1979
60.2306
60.1950
60.991
60.580
60.863
60.1301
60.1399
60.921
60.477
60.390
60.535
60.596
59.9909
59.8685
59.8145
59.8443
59.8829
59.9060
59.8924
59.8579
59.8199
59.8155
59.8507
59.8480
59.7441
59.6921
59.7536
59.8302
59.8638
59.8320
59.8069
59.8191
59.8442
59.8797
59.9029
59.8512
59.8099
59.8384
59.9122
59.9845
59.9961
59.9680
59.9710
60.178
60.743
60.775
60.2
59.9675
60.146
60.810
60.1406
60.1746
60.1699
60.1498
60.1561
60.2092
60.2391
60.1605
60.953
60.1349
60.2094
60.2417
60.2149
60.1693
60.1470
60.1437
60.1624
60.1796
60.1131
60.278
60.35
60.350
60.734
60.672
60.88
59.9733
59.9711
59.9873
59.9834
59.8791
59.7706
59.7517
59.7915
59.8339
59.8587
59.8346
59.7920
59.7595
59.7699
59.8103
59.7666
59.6636
59.6496
59.7244
59.7907
59.8020
59.7530
59.7304
59.7500
59.7899
59.8387
59.8443
59.7786
59.7552
59.8000
59.8763
59.9446
59.9457
59.9245
59.9405
59.9945
60.472
60.255
59.9520
59.9385
59.9908
60.517
60.1158
60.1364
60.1217
60.1004
60.1167
60.1693
60.1736
60.755
60.355
60.1020
60.1777
60.2075
60.1723
60.1285
60.1063
60.1112
60.1470
60.1526
60.682
59.9969
59.9994
60.430
60.785
60.475
59.9965
59.9708
59.9782
59.9927
59.9661
59.8480
59.7554
59.7575
59.7983
59.8292
59.8387
59.8123
59.7765
59.7590
59.7825
59.8174
59.7482
59.6626
59.6763
59.7609
59.8214
59.8167
59.7781
59.7713
59.7844
59.8172
59.8652
59.8427
59.7853
59.7844
59.8374
59.9119
59.9657
59.9553
59.9434
59.9734
60.276
60.686
60.196
59.9639
59.9838
60.482
60.1199
60.1770
60.1831
60.1641
60.1572
60.1930
60.2545
60.2154
60.1262
60.1220
60.2026
60.2584
60.2549
60.2052
60.1760
60.1625
60.1756
60.2064
60.1787
60.888
60.382
60.608
60.1049
60.1208
60.737
60.311
60.184
60.374
60.533
59.9954
59.8682
59.8106
59.8352
59.8819
59.9169
59.9010
59.8582
59.8172
59.8052
59.8416
59.8428
59.7534
59.6939
59.7421
59.8181
59.8511
59.8203
59.7922
59.7941
59.8210
59.8646
59.8937
59.8472
59.7952
59.8136
59.8843
59.9554
59.9830
59.9565
59.9576
60.41
60.616
60.777
59.9989
59.9562
59.9938
60.604
60.1225
60.1607
60.1513
60.1350
60.1386
60.1908
60.2335
60.1611
60.840
60.1112
60.1864
60.2346
60.2228
60.1792
60.1532
60.1481
60.1711
60.1984
60.1293
60.292
60.77
60.411
60.763
60.710
60.202
59.9833
59.9835
59.9994
60.19
59.9076
59.7894
59.7562
59.7999
59.8459
59.8740
59.8517
59.8102
59.7783
59.7912
59.8327
59.8035
59.7054
59.6776
59.7470
59.8184
59.8412
59.7964
59.7757
59.7848
59.8157
59.8637
59.8723
59.8146
59.7821
59.8196
59.8963
59.9729
59.9763
59.9568
59.9745
60.311
60.867
60.774
60.15
59.9863
60.402
60.1079
60.1693
60.1905
60.1804
60.1676
60.1878
60.2462
60.2489
60.1598
60.1180
60.1728
60.2422
60.2716
60.2377
60.1995
60.1757
60.1819
60.2106
60.2228
60.1428
60.748
60.785
60.1185
60.1518
60.1284
60.800
60.592
60.698
60.902
60.590
59.9343
59.8433
59.8446
59.8876
59.9258
59.9318
59.8967
59.8558
59.8370
59.8606
59.8961
59.8263
59.7382
59.7463
59.8268
59.8809
59.8790
59.8439
59.8403
59.8575
59.8975
59.9425
59.9217
59.8652
59.8648
59.9241
60.34
60.558
60.361
60.183
60.471
60.1078
60.1480
60.1002
60.300
60.435
60.1112
60.1807
60.2339
60.2430
60.2286
60.2221
60.2609
60.3112
60.2750
60.1908
60.1884
60.2629
60.3239
60.3267
60.2732
60.2346
60.2223
60.2407
60.2685
60.2313
60.1394
60.906
60.1129
60.1519
60.1606
60.1096
60.647
60.577
60.728
60.868
60.265
59.9009
59.8457
59.8758
59.9153
59.9476
59.9379
59.9021
59.8576
59.8521
59.8842
59.8826
59.7840
59.7267
59.7797
59.8593
59.8919
59.8526
59.8110
59.8193
59.8460
59.8896
59.9163
59.8687
59.8253
59.8447
59.9114
59.9878
60.51
59.9836
59.9864
60.317
60.920
60.993
60.246
59.9811
60.201
60.849
60.1488
60.1882
60.1815
60.1541
60.1499
60.2035
60.2394
60.1626
60.926
60.1319
60.2124
60.2518
60.2354
60.1962
60.1697
60.1635
60.1916
60.2174
60.1583
60.730
60.541
60.883
60.1271
60.1209
60.645
60.280
60.237
60.446
60.469
59.9437
59.8303
59.8104
59.8557
59.8982
59.9197
59.8928
59.8510
59.8215
59.8357
59.8768
59.8451
59.7508
59.7347
59.8172
59.8861
59.9066
59.8677
59.8516
59.8627
59.8920
59.9439
59.9458
59.8835
59.8583
59.9071
59.9858
60.548
60.519
60.310
60.515
60.1115
60.1666
60.1437
60.693
60.599
60.1270
60.2007
60.2644
60.2794
60.2677
60.2530
60.2737
60.3273
60.3183
60.2283
60.1942
60.2654
60.3299
60.3424
60.2951
60.2553
60.2442
60.2483
60.2712
60.2647
60.1771
60.1111
60.1211
60.1624
60.1898
60.1529
60.998
60.825
60.994
60.1183
60.781
59.9470
59.8678
59.8832
59.9278
59.9607
59.9635
59.9244
59.8806
59.8595
59.8881
59.9135
59.8295
59.7449
59.7714
59.8502
59.8967
59.8835
59.8436
59.8337
59.8545
59.8995
59.9408
59.9019
59.8487
59.8616
59.9273
60.105
60.519
60.240
60.123
60.523
60.1124
60.1422
60.769
60.161
60.348
60.966
60.1596
60.2141
60.2170
60.1914
60.1833
60.2255
60.2792
60.2210
60.1365
60.1499
60.2324
60.2834
60.2781
60.2300
60.2028
60.1887
60.2058
60.2366
60.1945
60.980
60.509
60.734
60.1129
60.1198
60.667
60.208
60.101
60.252
60.369
59.9560
59.8303
59.7834
59.8157
59.8589
59.8896
59.8658
59.8314
59.7955
59.8037
59.8452
59.8407
59.7458
59.6964
59.7556
59.8317
59.8629
59.8339
59.8049
59.8019
59.8258
59.8676
59.8890
59.8376
59.7960
59.8244
59.8932
59.9645
59.9822
59.9654
59.9748
60.246
60.870
60.910
60.169
59.9884
60.344
60.1001
60.1655
60.2093
60.1960
60.1734
60.1868
60.2405
60.2585
60.1726
60.1159
60.1638
60.2373
60.2717
60.2427
60.1981
60.1750
60.1827
60.2118
60.2307
60.1609
60.775
60.622
60.997
60.1350
60.1218
60.677
60.354
60.376
60.600
60.547
59.9484
59.8418
59.8253
59.8767
59.9158
59.9272
59.8978
59.8629
59.8310
59.8439
59.8794
59.8260
59.7364
59.7291
59.8077
59.8690
59.8784
59.8396
59.8255
59.8434
59.8819
59.9336
59.9287
59.8595
59.8356
59.8835
59.9649
60.279
60.164
59.9975
60.175
60.705
60.1193
60.851
60.61
60.48
60.654
60.1299
60.1954
60.2093
60.1933
60.1848
60.2117
60.2668
60.2505
60.1526
60.1322
60.2100
60.2731
60.2862
60.2394
60.2071
60.1917
60.1928
60.2243
60.2116
60.1169
60.519
60.624
60.948
60.1225
60.834
60.367
60.217
60.347
60.510
60.129
59.8854
59.8059
59.8261
59.8744
59.9147
59.9123
59.8797
59.8442
59.8225
59.8529
59.8797
59.7921
59.7116
59.7442
59.8260
59.8702
59.8474
59.8121
59.8069
59.8294
59.8672
59.9016
59.8575
59.7963
59.8037
59.8719
59.9528
59.9950
59.9734
59.9649
60.10
60.644
60.970
60.271
59.9631
59.9859
60.559
60.1219
60.1698
60.1622
60.1392
60.1357
60.1700
60.2193
60.1597
60.686
60.823
60.1632
60.2157
60.2118
60.1567
60.1227
60.1182
60.1354
60.1656
60.1267
60.394
59.9998
60.259
60.652
60.653
60.96
59.9667
59.9606
59.9769
59.9842
59.9075
59.7738
59.7239
59.7573
59.8010
59.8317
59.8128
59.7731
59.7351
59.7345
59.7812
59.7773
59.6830
59.6309
59.6911
59.7742
59.8071
59.7722
59.7420
59.7471
59.7717
59.8172
59.8425
59.7877
59.7442
59.7689
59.8364
59.9154
59.9326
59.9109
59.9181
59.9638
60.245
60.379
59.9598
59.9277
59.9728
60.446
60.1100
60.1497
60.1468
60.1294
60.1347
60.1839
60.2161
60.1330
60.688
60.1063
60.1826
60.2196
60.2021
60.1548
60.1274
60.1239
60.1477
60.1690
60.1049
60.212
59.9994
60.329
60.660
60.525
60.2
59.9726
59.9788
60.13
60.20
59.8996
59.7921
59.7768
59.8222
59.8679
59.8871
59.8522

END