=~=~=~=~=~=~=~=~=~=~=~= PuTTY log 2025.04.16 15:12:17 =~=~=~=~=~=~=~=~=~=~=~=




Speed (Hz)
59.6503
59.6600
59.7239
59.8486
60.175
60.1707
60.2745
60.3537
60.3933
60.3915
60.3642
60.3397
60.3144
60.2699
60.2076
60.1744
60.1840
60.2092
60.2420
60.2966
60.3647
60.4303
60.4944
60.5255
60.5243
60.5015
60.4713
60.4309
60.3773
60.3248
60.2703
60.2024
60.1483
60.1445
60.1602
60.1757
60.2166
60.2946
60.3729
60.4161
60.4200
60.4062
60.3641
60.2849
60.2021
60.1295
60.466
59.9464
59.8740
59.8430
59.8302
59.8297
59.8515
59.8991
59.9493
59.9976
60.173
59.9993
59.9474
59.9044
59.8446
59.7742
59.7001
59.6333
59.5474
59.4677
59.4245
59.4230
59.4290
59.4564
59.5283
59.6219
59.7048
59.7441
59.7572
59.7517
59.7212
59.6708
59.6430
59.6126
59.5649
59.5197
59.5057
59.5368
59.5805
59.6375
59.7215
59.8260
59.9274
60.121
60.651
60.799
60.830
60.845
60.582
60.180
59.9874
59.9526
59.9048
59.8788
59.8940
59.9231
59.9573
60.312
60.1353
60.2346
60.2955
60.3260
60.3362
60.3132
60.2502
60.1907
60.1274
60.621
59.9709
59.9129
59.8946
59.8903
59.8939
59.9237
59.9734
60.236
60.625
60.755
60.494
60.4
59.9623
59.9045
59.8340
59.7701
59.7064
59.6206
59.5467
59.5182
59.5178
59.5297
59.5645
59.6418
59.7392
59.8128
59.8484
59.8612
59.8603
59.8205
59.7777
59.7369
59.6952
59.6438
59.5916
59.5864
59.6090
59.6494
59.7014
59.7933
59.8894
59.9877
60.695
60.1146
60.1218
60.1296
60.1255
60.1066
60.802
60.565
60.207
59.9699
59.9588
59.9744
60.94
60.438
60.1171
60.2181
60.3022
60.3480
60.3735
60.3651
60.3226
60.2543
60.1906
60.1301
60.595
59.9765
59.9297
59.9222
59.9223
59.9366
59.9721
60.329
60.849
60.1296
60.1325
60.1038
60.632
60.126
59.9453
59.8730
59.7998
59.7262
59.6366
59.5712
59.5467
59.5480
59.5625
59.6104
59.6957
59.7919
59.8577
59.8826
59.8978
59.8908
59.8492
59.8048
59.7743
59.7366
59.6845
59.6462
59.6608
59.6802
59.7249
59.7877
59.8820
59.9770
60.693
60.1332
60.1534
60.1586
60.1542
60.1329
60.1061
60.720
60.515
59.9978
59.9551
59.9593
59.9841
60.175
60.621
60.1542
60.2559
60.3393
60.3746
60.3907
60.3804
60.3270
60.2566
60.1923
60.1307
60.494
59.9669
59.9321
59.9238
59.9228
59.9356
59.9744
60.270
60.726
60.989
60.950
60.642
60.199
59.9640
59.8988
59.8333
59.7723
59.7000
59.6219
59.5691
59.5595
59.5607
59.5841
59.6464
59.7394
59.8230
59.8710
59.8907
59.8843
59.8599
59.8136
59.7755
59.7343
59.6847
59.6254
59.6044
59.6190
59.6496
59.6943
59.7631
59.8597
59.9552
60.457
60.1077
60.1275
60.1336
60.1283
60.1209
60.915
60.637
60.356
59.9820
59.9460
59.9516
59.9790
60.29
60.609
60.1496
60.2479
60.3100
60.3379
60.3450
60.3286
60.2745
60.2196
60.1750
60.1115
60.307
59.9635
59.9373
59.9353
59.9349
59.9458
59.9916
60.378
60.857
60.1093
60.964
60.532
60.7
59.9458
59.8824
59.8133
59.7533
59.6718
59.5927
59.5481
59.5392
59.5479
59.5714
59.6496
59.7484
59.8344
59.8697
59.8900
59.8950
59.8688
59.8332
59.8015
59.7670
59.7210
59.6648
59.6558
59.6678
59.6993
59.7492
59.8241
59.9198
60.91
60.913
60.1427
60.1597
60.1686
60.1648
60.1544
60.1340
60.1146
60.819
60.335
60.166
60.354
60.694
60.1078
60.1867
60.2811
60.3770
60.4282
60.4492
60.4534
60.4218
60.3532
60.2868
60.2262
60.1581
60.638
60.143
60.27
60.2
60.71
60.427
60.943
60.1412
60.1845
60.1993
60.1765
60.1413
60.924
60.357
59.9784
59.9147
59.8501
59.7691
59.7038
59.6740
59.6747
59.6796
59.7226
59.8011
59.8903
59.9469
59.9791
59.9821
59.9753
59.9322
59.8893
59.8625
59.8266
59.7809
59.7415
59.7418
59.7648
59.8093
59.8732
59.9643
60.640
60.1583
60.2313
60.2615
60.2672
60.2704
60.2610
60.2376
60.2139
60.1917
60.1444
60.1031
60.952
60.1212
60.1498
60.1944
60.2853
60.3849
60.4629
60.5027
60.5199
60.5075
60.4597
60.4011
60.3450
60.2882
60.2093
60.1383
60.1040
60.888
60.867
60.1011
60.1426
60.1890
60.2305
60.2618
60.2493
60.2106
60.1672
60.1167
60.531
59.9932
59.9322
59.8604
59.7891
59.7442
59.7319
59.7410
59.7614
59.8232
59.9211
60.22
60.426
60.589
60.668
60.388
59.9938
59.9618
59.9215
59.8802
59.8192
59.7948
59.8096
59.8420
59.8831
59.9520
60.437
60.1412
60.2217
60.2792
60.2976
60.3025
60.3012
60.2873
60.2660
60.2453
60.2209
60.1673
60.1392
60.1491
60.1756
60.2061
60.2700
60.3629
60.4529
60.5064
60.5231
60.5248
60.4942
60.4308
60.3668
60.3072
60.2317
60.1521
60.932
60.657
60.580
60.574
60.846
60.1373
60.1926
60.2403
60.2510
60.2291
60.1835
60.1372
60.781
60.162
59.9448
59.8818
59.7942
59.7164
59.6783
59.6689
59.6772
59.7087
59.7948
59.8851
59.9537
59.9831
59.9953
59.9876
59.9494
59.9158
59.8861
59.8531
59.8038
59.7593
59.7568
59.7866
59.8281
59.8888
59.9764
60.724
60.1665
60.2423
60.2799
60.2877
60.2862
60.2771
60.2516
60.2126
60.1942
60.1419
60.1000
60.872
60.1075
60.1338
60.1788
60.2635
60.3639
60.4534
60.4877
60.5088
60.4991
60.4506
60.3838
60.3285
60.2662
60.1841
60.963
60.593
60.400
60.325
60.412
60.718
60.1227
60.1654
60.1961
60.1899
60.1496
60.1010
60.418
59.9844
59.9277
59.8728
59.8106
59.7315
59.6743
59.6654
59.6742
59.6885
59.7433
59.8308
59.9163
59.9625
59.9815
59.9819
59.9546
59.9073
59.8609
59.8252
59.7898
59.7327
59.7087
59.7289
59.7575
59.8064
59.8735
59.9741
60.656
60.1590
60.2182
60.2327
60.2400
60.2392
60.2302
60.2060
60.1825
60.1608
60.1121
60.832
60.946
60.1279
60.1604
60.2125
60.3002
60.3981
60.4592
60.4783
60.4871
60.4659
60.4047
60.3342
60.2779
60.2122
60.1384
60.822
60.617
60.546
60.648
60.853
60.1322
60.1798
60.2213
60.2389
60.2201
60.1721
60.1195
60.469
59.9771
59.9037
59.8412
59.7605
59.6852
59.6442
59.6363
59.6397
59.6730
59.7516
59.8497
59.9270
59.9618
59.9763
59.9735
59.9379
59.8862
59.8508
59.8047
59.7658
59.7161
59.7090
59.7308
59.7647
59.8181
59.8932
59.9892
60.805
60.1561
60.1988
60.2085
60.2010
60.1893
60.1661
60.1447
60.1203
60.798
60.332
60.219
60.412
60.712
60.1077
60.1809
60.2795
60.3694
60.4120
60.4304
60.4277
60.3892
60.3227
60.2588
60.1982
60.1346
60.463
60.3
59.9867
59.9784
59.9918
60.245
60.732
60.1214
60.1597
60.1656
60.1347
60.908
60.328
59.9736
59.9079
59.8490
59.7919
59.7163
59.6592
59.6336
59.6378
59.6466
59.6833
59.7622
59.8504
59.9063
59.9376
59.9411
59.9251
59.8812
59.8369
59.8053
59.7687
59.7203
59.6885
59.6914
59.7229
59.7644
59.8268
59.9217
60.147
60.994
60.1637
60.1893
60.1890
60.1854
60.1741
60.1478
60.1139
60.838
60.395
59.9993
60.2
60.250
60.545
60.983
60.1828
60.2879
60.3642
60.3971
60.4110
60.4013
60.3529
60.2911
60.2330
60.1681
60.910
60.206
59.9845
59.9807
59.9766
60.16
60.461
60.1010
60.1464
60.1763
60.1604
60.1184
60.713
60.76
59.9394
59.8685
59.8124
59.7466
59.6675
59.6209
59.6081
59.6217
59.6477
59.7061
59.7982
59.8790
59.9214
59.9385
59.9386
59.9098
59.8666
59.8244
59.7908
59.7474
59.6865
59.6604
59.6712
59.7005
59.7398
59.8084
59.9010
59.9865
60.795
60.1312
60.1479
60.1541
60.1508
60.1319
60.1076
60.826
60.611
60.171
59.9875
60.7
60.259
60.607
60.1104
60.2004
60.2963
60.3556
60.3833
60.3838
60.3552
60.2872
60.2189
60.1625
60.969
60.148
59.9454
59.9276
59.9214
59.9282
59.9511
60.6
60.477
60.963
60.1213
60.1042
60.612
60.101
59.9516
59.8955
59.8239
59.7703
59.6887
59.6126
59.5687
59.5583
59.5619
59.5825
59.6444
59.7365
59.8096
59.8418
59.8570
59.8514
59.8150
59.7575
59.7301
59.6988
59.6549
59.6023
59.5911
59.6166
59.6609
59.7170
59.7930
59.8911
59.9832
60.648
60.1115
60.1215
60.1201
60.1088
60.816
60.543
60.260
59.9970
59.9548
59.9367
59.9624
59.9923
60.290
60.1048
60.1957
60.2857
60.3326
60.3555
60.3493
60.3146
60.2513
60.1959
60.1322
60.640
59.9825
59.9265
59.9046
59.8978
59.9050
59.9276
59.9763
60.200
60.527
60.561
60.298
59.9880
59.9306
59.8781
59.8176
59.7580
59.6954
59.6236
59.5558
59.5268
59.5344
59.5458
59.5800
59.6707
59.7637
59.8318
59.8513
59.8574
59.8442
59.7981
59.7540
59.7245
59.6870
59.6369
59.5922
59.5896
59.6166
59.6598
59.7241
59.8119
59.9056
59.9941
60.638
60.1061
60.1154
60.1215
60.1182
60.974
60.704
60.478
60.98
59.9719
59.9593
59.9856
60.176
60.523
60.1333
60.2348
60.3171
60.3632
60.3753
60.3649
60.3226
60.2536
60.1995
60.1397
60.667
59.9897
59.9519
59.9340
59.9326
59.9420
59.9853
60.437
60.882
60.1260
60.1224
60.782
60.321
59.9726
59.9127
59.8413
59.7773
59.7130
59.6309
59.5707
59.5476
59.5559
59.5778
59.6321
59.7191
59.8050
59.8572
59.8776
59.8872
59.8748
59.8253
59.7792
59.7529
59.7099
59.6617
59.6321
59.6468
59.6762
59.7192
59.7768
59.8684
59.9641
60.588
60.1253
60.1460
60.1471
60.1424
60.1236
60.905
60.618
60.413
59.9987
59.9642
59.9768
60.30
60.410
60.983
60.1910
60.2936
60.3674
60.4000
60.4024
60.3857
60.3202
60.2523
60.1840
60.1108
60.323
59.9518
59.9178
59.9097
59.9175
59.9353
59.9882
60.323
60.844
60.1147
60.1076
60.730
60.216
59.9633
59.8952
59.8283
59.7719
59.7014
59.6259
59.5818
59.5758
59.5840
59.6089
59.6749
59.7677
59.8412
59.8873
59.9028
59.8973
59.8666
59.8197
59.7874
59.7491
59.7130
59.6655
59.6544
59.6769
59.7083
59.7653
59.8478
59.9508
60.458
60.1373
60.1874
60.2048
60.2077
60.2044
60.1818
60.1517
60.1174
60.903
60.384
60.77
60.198
60.533
60.869
60.1550
60.2540
60.3548
60.4159
60.4480
60.4568
60.4334
60.3811
60.3271
60.2617
60.1909
60.1083
60.534
60.288
60.237
60.229
60.495
60.975
60.1453
60.1909
60.2043
60.1803
60.1320
60.775
60.132
59.9440
59.8726
59.8090
59.7228
59.6386
59.6021
59.5987
59.6075
59.6453
59.7294
59.8273
59.9048
59.9418
59.9551
59.9526
59.9162
59.8710
59.8306
59.7985
59.7445
59.6968
59.6825
59.7073
59.7388
59.7976
59.8798
59.9711
60.609
60.1478
60.1877
60.2005
60.2047
60.2012
60.1820
60.1571
60.1382
60.1068
60.653
60.557
60.797
60.1120
60.1484
60.2288
60.3300
60.4164
60.4629
60.4741
60.4680
60.4260
60.3589
60.2989
60.2359
60.1639
60.739
60.254
60.42
59.9992
60.119
60.522
60.1047
60.1588
60.1997
60.2075
60.1810
60.1445
60.863
60.210
59.9449
59.8815
59.8085
59.7205
59.6546
59.6300
59.6206
59.6342
59.6901
59.7841
59.8815
59.9391
59.9566
59.9670
59.9486
59.8953
59.8556
59.8217
59.7824
59.7348
59.7031
59.7133
59.7410
59.7866
59.8523
59.9497
60.465
60.1444
60.2031
60.2340
60.2310
60.2248
60.2096
60.1769
60.1441
60.1145
60.671
60.245
60.272
60.576
60.938
60.1469
60.2394
60.3376
60.4100
60.4407
60.4541
60.4422
60.3926
60.3266
60.2728
60.2141
60.1315
60.589
60.185
60.120
60.105
60.235
60.736
60.1232
60.1691
60.1924
60.1796
60.1327
60.918
60.307
59.9658
59.8977
59.8341
59.7605
59.6869
59.6438
59.6393
59.6541
59.6730
59.7419
59.8373
59.9165
59.9591
59.9681
59.9603
59.9254
59.8728
59.8322
59.7936
59.7472
59.6920
59.6771
59.6923
59.7231
59.7686
59.8443
59.9394
60.394
60.1205
60.1715
60.1878
60.1878
60.1836
60.1653
60.1355
60.1047
60.731
60.232
59.9929
60.71
60.351
60.653
60.1317
60.2248
60.3163
60.3713
60.3976
60.3938
60.3680
60.2978
60.2380
60.1740
60.1066
60.165
59.9574
59.9386
59.9382
59.9454
59.9792
60.372
60.916
60.1370
60.1514
60.1302
60.921
60.445
59.9891
59.9152
59.8373
59.7692
59.6790
59.5963
59.5579
59.5496
59.5527
59.5791
59.6616
59.7619
59.8346
59.8762
59.8891
59.8987
59.8701
59.8334
59.8023
59.7647
59.7161
59.6698
59.6659
59.6829
59.7222
59.7779
59.8613
59.9577
60.554
60.1289
60.1691
60.1730
60.1770
60.1666
60.1475
60.1165
60.975
60.609
60.198
60.28
60.219
60.554
60.962
60.1809
60.2825
60.3735
60.4170
60.4337
60.4292
60.3867
60.3148
60.2589
60.1958
60.1179
60.320
59.9849
59.9612
59.9498
59.9574
59.9891
60.471
60.990
60.1428
60.1470
60.1176
60.768
60.274
59.9632
59.8983
59.8366
59.7681
59.6819
59.6179
59.5899
59.5928
59.5970
59.6422
59.7254
59.8098
59.8636
59.8887
59.8899
59.8773
59.8352
59.7924
59.7620
59.7162
59.6665
59.6366
59.6488
59.6782
59.7249
59.7963
59.8899
59.9866
60.789
60.1406
60.1733
60.1839
60.1810
60.1689
60.1408
60.1125
60.857
60.359
60.3
59.9935
60.162
60.429
60.865
60.1729
60.2733
60.3512
60.3836
60.4002
60.3891
60.3410
60.2793
60.2191
60.1613
60.861
60.105
59.9827
59.9758
59.9686
59.9864
60.303
60.767
60.1261
60.1574
60.1494
60.1152
60.631
60.37
59.9420
59.8640
59.8035
59.7269
59.6431
59.5960
59.5835
59.5934
59.6200
59.6878
59.7887
59.8793
59.9336
59.9545
59.9609
59.9347
59.8881
59.8551
59.8156
59.7630
59.7048
59.6844
59.6999
59.7319
59.7797
59.8482
59.9429
60.332
60.1195
60.1743
60.1909
60.1970
60.1882
60.1770
60.1585
60.1356
60.1026
60.549
60.293
60.414
60.781
60.1144
60.1786
60.2800
60.3753
60.4287
60.4540
60.4498
60.4212
60.3550
60.2924
60.2318
60.1583
60.709
60.38
59.9813
59.9779
59.9890
60.129
60.668
60.1197
60.1753
60.1874
60.1732
60.1284
60.812
60.195
59.9447
59.8723
59.8091
59.7223
59.6447
59.6022
59.5908
59.6007
59.6282
59.7072
59.8065
59.8807
59.9160
59.9329
59.9340
59.8979
59.8627
59.8297
59.7921
59.7423
59.6930
59.6865
59.7153
59.7577
59.8155
59.8911
59.9879
60.799
60.1636
60.2020
60.2055
60.2020
60.1885
60.1663
60.1356
60.1019
60.540
60.131
59.9983
60.171
60.444
60.833
60.1622
60.2593
60.3523
60.3942
60.4125
60.4099
60.3741
60.3099
60.2544
60.1888
60.1173
60.330
59.9848
59.9640
59.9551
59.9561
59.9776
60.230
60.661
60.1047
60.1070
60.671
60.230
59.9733
59.9103
59.8442
59.7794
59.7097
59.6340
59.5732
59.5541
59.5599
59.5728
59.6194
59.7045
59.7992
59.8588
59.8863
59.8870
59.8680
59.8209
59.7824
59.7442
59.7010
59.6486
59.6151
59.6244
59.6505
59.6934
59.7575
59.8513
59.9471
60.485
60.1180
60.1490
60.1631
60.1609
60.1503
60.1272
60.1056
60.892
60.412
60.54
60.88
60.349
60.697
60.1129
60.1978
60.2891
60.3609
60.3920
60.3980
60.3909
60.3397
60.2794
60.2259
60.1667
60.895
60.186
59.9812
59.9742
59.9728
59.9916
60.378
60.900
60.1459
60.1748
60.1713
60.1214
60.758
60.128
59.9473
59.8766
59.8213
59.7472
59.6630
59.6130
59.6012
59.6069
59.6254
59.6947
59.7883
59.8766
59.9176
59.9347
59.9357
59.9183
59.8689
59.8358
59.8038
59.7645
59.7138
59.6958
59.7182
59.7515
59.8059
59.8784
59.9719
60.657
60.1515
60.2023
60.2253
60.2265
60.2260
60.2101
60.1837
60.1568
60.1306
60.915
60.730
60.899
60.1297
60.1633
60.2320
60.3313
60.4336
60.4918
60.5139
60.5155
60.4846
60.4185
60.3512
60.2879
60.2203
60.1426
60.870
60.746
60.688
60.773
60.1017
60.1518
60.2037
60.2490
60.2604
60.2370
60.1951
60.1417
60.782
60.53
59.9354
59.8806
59.8075
59.7403
59.7195
59.7228
59.7257
59.7611
59.8413
59.9364
59.9978
60.230
60.281
60.164
59.9725
59.9211
59.8806
59.8443
59.7956
59.7545
59.7653
59.7993
59.8442
59.9055
59.9957
60.915
60.1830
60.2538
60.2883
60.2940
60.2889
60.2689
60.2412
60.2160
60.1917
60.1439
60.1029
60.966
60.1236
60.1571
60.1874
60.2688
60.3683
60.4432
60.4859
60.5018
60.4938
60.4380
60.3726
60.3154
60.2579
60.1821
60.1017
60.603
60.461
60.422
60.583
60.945
60.1394
60.1855
60.2146
60.2089
60.1647
60.1177
60.543
59.9929
59.9269
59.8683
59.8020
59.7208
59.6641
59.6414
59.6480
59.6668
59.7216
59.8133
59.9021
59.9527
59.9723
59.9753
59.9606
59.9099
59.8691
59.8355
59.7912
59.7325
59.7014
59.7118
59.7392
59.7781
59.8415
59.9272
60.236
60.1104
60.1719
60.1885
60.1933
60.1936
60.1733
60.1483
60.1172
60.967
60.515
60.205
60.270
60.580
60.859
60.1367
60.2307
60.3271
60.3892
60.4140
60.4161
60.3963
60.3365
60.2649
60.1964
60.1266
60.507
59.9783
59.9551
59.9457
59.9511
59.9771
60.297
60.877
60.1279
60.1515
60.1362
60.951
60.398
59.9775
59.9110
59.8414
59.7802
59.7028
59.6292
59.5889
59.5808
59.5884
59.6075
59.6775
59.7682
59.8472
59.8861
59.9025
59.8985
59.8685
59.8181
59.7914
59.7580
59.7198
59.6744
59.6677
59.6917
59.7378
59.7924
59.8771
59.9750
60.709
60.1529
60.2019
60.2097
60.2067
60.1937
60.1707
60.1389
60.1100
60.786
60.292
60.89
60.277
60.758
60.1113
60.1798
60.2761
60.3704
60.4176
60.4360
60.4377
60.4004
60.3339
60.2693
60.2066
60.1404
60.580
60.13
59.9832
59.9773
59.9853
60.79
60.643
60.1178
60.1526
60.1545
60.1259
60.792
60.236
59.9584
59.8928
59.8323
59.7774
59.6982
59.6341
59.6118
59.6112
59.6262
59.6672
59.7478
59.8456
59.9063
59.9225
59.9308
59.9178
59.8698
59.8245
59.7871
59.7497
59.6973
59.6519
59.6526
59.6803
59.7134
59.7716
59.8623
59.9558
60.454
60.1194
60.1541
60.1625
60.1612
60.1506
60.1233
60.894
60.687
60.268
59.9853
59.9819
60.26
60.348
60.686
60.1464
60.2502
60.3296
60.3646
60.3735
60.3653
60.3168
60.2528
60.1969
60.1341
60.643
59.9955
59.9607
59.9540
59.9660
59.9868
60.320
60.832
60.1330
60.1679
60.1605
60.1278
60.808
60.283
59.9596
59.8899
59.8320
59.7592
59.6835
59.6242
59.6010
59.6024
59.6257
59.6859
59.7776
59.8700
59.9177
59.9437
59.9481
59.9224
59.8750
59.8365
59.8092
59.7724
59.7209
59.6937
59.7094
59.7394
59.7886
59.8478
59.9384
60.258
60.1058
60.1637
60.1827
60.1862
60.1766
60.1532
60.1244
60.918
60.702
60.265
60.23
60.90
60.467
60.837
60.1404
60.2363
60.3420
60.4090
60.4358
60.4377
60.4198
60.3526
60.2850
60.2223
60.1552
60.759
60.41
59.9729
59.9640
59.9686
59.9920
60.361
60.879
60.1305
60.1528
60.1388
60.954
60.544
59.9933
59.9361
59.8733
59.8200
59.7540
59.6762
59.6368
59.6342
59.6380
59.6565
59.7228
59.8200
59.8892
59.9210
59.9311
59.9199
59.8799
59.8369
59.7998
59.7684
59.7286
59.6816
59.6720
59.7006
59.7382
59.7966
59.8711
59.9642
60.547
60.1340
60.1806
60.1880
60.1856
60.1744
60.1570
60.1247
60.970
60.592
60.103
59.9880
59.9994
60.303
60.587
60.1282
60.2241
60.3212
60.3771
60.3966
60.3978
60.3621
60.2994
60.2469
60.1864
60.1182
60.360
59.9751
59.9558
59.9498
59.9525
59.9746
60.242
60.683
60.1072
60.1180
60.861
60.449
59.9871
59.9149
59.8418
59.7690
59.7072
59.6231
59.5546
59.5273
59.5245
59.5332
59.5672
59.6467
59.7408
59.8112
59.8444
59.8614
59.8605
59.8214
59.7825
59.7507
59.7134
59.6669
59.6242
59.6158
59.6387
59.6738
59.7277
59.8066
59.9004
59.9939
60.731
60.1173
60.1303
60.1340
60.1284
60.1094
60.832
60.696
60.384
59.9978
59.9849
60.113
60.418
60.801
60.1610
60.2627
60.3555
60.4010
60.4152
60.4150
60.3678
60.2996
60.2354
60.1708
60.981
60.109
59.9665
59.9488
59.9460
59.9629
60.88
60.626
60.1186
60.1592
60.1658
60.1362
60.901
60.353
59.9791
59.9106
59.8457
59.7775
59.6915
59.6309
59.6131
59.6095
59.6250
59.6733
59.7681
59.8612
59.9133
59.9381
59.9526
59.9420
59.8930
59.8547
59.8252
59.7840
59.7278
59.6942
59.7083
59.7468
59.7909
59.8637
59.9603
60.633
60.1584
60.2238
60.2467
60.2524
60.2468
60.2270
60.2027
60.1746
60.1509
60.978
60.624
60.579
60.798
60.1135
60.1661
60.2670
60.3720
60.4443
60.4808
60.4966
60.4890
60.4382
60.3796
60.3225
60.2555
60.1707
60.997
60.683
60.577
60.510
60.709
60.1127
60.1636
60.2115
60.2342
60.2267
60.1803
60.1324
60.741
60.81
59.9462
59.8850
59.8154
59.7384
59.6927
59.6875
59.6977
59.7166
59.7876
59.8903
59.9709
60.107
60.301
60.297
59.9975
59.9522
59.9067
59.8664
59.8214
59.7624
59.7383
59.7522
59.7832
59.8269
59.9010
59.9982
60.918
60.1800
60.2313
60.2440
60.2452
60.2413
60.2256
60.1976
60.1672
60.1355
60.829
60.588
60.690
60.958
60.1305
60.1934
60.2828
60.3733
60.4279
60.4578
60.4583
60.4250
60.3647
60.3061
60.2448
60.1717
60.830
60.294
60.26
59.9921
60.49
60.328
60.875
60.1348
60.1810
60.1964
60.1706
60.1272
60.762
60.142
59.9440
59.8751
59.8108
59.7225
59.6430
59.6024
59.6003
59.6073
59.6403
59.7306
59.8300
59.8997
59.9324
59.9500
59.9481
59.8996
59.8583
59.8244
59.7806
59.7274
59.6811
59.6793
59.7057
59.7449
59.7972
59.8854
59.9765
60.678
60.1413
60.1736
60.1769
60.1739
60.1613
60.1344
60.1007
60.737
60.331
59.9830
59.9675
59.9858
60.219
60.641
60.1534
60.2542
60.3442
60.3921
60.4094
60.4067
60.3650
60.3008
60.2366
60.1625
60.817
59.9940
59.9447
59.9274
59.9205
59.9324
59.9694
60.212
60.689
60.1105
60.1122
60.858
60.427
59.9867
59.9263
59.8570
59.7952
59.7247
59.6411
59.5778
59.5601
59.5689
59.5803
59.6333
59.7205
59.8102
59.8699
59.8899
59.8922
59.8738
59.8309
59.7901
59.7544
59.7136
59.6591
59.6318
59.6448
59.6730
59.7196
59.7918
59.8920
59.9877
60.775
60.1507
60.1802
60.1845
60.1866
60.1676
60.1471
60.1142
60.898
60.413
60.11
60.14
60.310
60.635
60.1199
60.2112
60.3155
60.3835
60.4118
60.4135
60.4046
60.3553
60.2897
60.2340
60.1774
60.1034
60.323
60.10
59.9931
59.9907
60.102
60.580
60.1061
60.1523
60.1753
60.1591
60.1089
60.558
59.9919
59.9264
59.8566
59.7950
59.7107
59.6249
59.5755
59.5653
59.5773
59.5939
59.6664
59.7616
59.8457
59.8889
59.9064
59.9091
59.8818
59.8337
59.8029
59.7638
59.7114
59.6598
59.6442
59.6608
59.6963
59.7528
59.8259
59.9146
59.9993
60.841
60.1330
60.1477
60.1587
60.1590
60.1463
60.1168
60.900
60.572
60.105
59.9896
60.85
60.425
60.745
60.1428
60.2410
60.3403
60.3967
60.4250
60.4230
60.3923
60.3259
60.2606
60.2003
60.1293
60.385
59.9762
59.9524
59.9448
59.9500
59.9797
60.337
60.857
60.1307
60.1431
60.1187
60.704
60.227
59.9580
59.8958
59.8304
59.7660
59.6830
59.6015
59.5653
59.5605
59.5627
59.5930
59.6756
59.7639
59.8251
59.8586
59.8728
59.8650
59.8202
59.7760
59.7389
59.7091
59.6647
59.6174
59.6135
59.6442
59.6811
59.7336
59.8203
59.9202
60.94
60.851
60.1263
60.1281
60.1310
60.1241
60.1059
60.707
60.497
60.144
59.9670
59.9520
59.9755
60.54
60.409
60.1193
60.2174
60.3034
60.3549
60.3795
60.3832
60.3372
60.2758
60.2182
60.1524
60.975
60.157
59.9719
59.9521
59.9452
59.9575
59.9913
60.404
60.912
60.1318
60.1252
60.895
60.335
59.9786
59.9110
59.8457
59.7884
59.7254
59.6449
59.5826
59.5653
59.5707
59.5905
59.6389
59.7298
59.8260
59.8790
59.9056
59.9115
59.8975
59.8493
59.8038
59.7649
59.7208
59.6707
59.6320
59.6353
59.6604
59.7027
59.7663
59.8648
59.9617
60.510
60.1121
60.1392
60.1406
60.1422
60.1334
60.1191
60.910
60.737
60.252
59.9808
59.9802
60.50
60.383
60.815
60.1680
60.2674
60.3403
60.3686
60.3766
60.3560
60.3024
60.2327
60.1734
60.1074
60.307
59.9591
59.9237
59.9183
59.9195
59.9445
59.9892
60.374
60.945
60.1344
60.1266
60.829
60.380
59.9757
59.9100
59.8452
59.7867
59.7120
59.6296
59.5764
59.5611
59.5604
59.5733
59.6313
59.7233
59.8090
59.8528
59.8774
59.8759
59.8558
59.8096
59.7657
59.7357
59.6937
59.6510
59.6257
59.6447
59.6759
59.7244
59.8042
59.9015
59.9998
60.851
60.1419
60.1566
60.1522
60.1406
60.1148
60.880
60.476
60.181
59.9783
59.9529
59.9699
60.144
60.482
60.1135
60.2094
60.3120
60.3781
60.4034
60.4082
60.3824
60.3207
60.2545
60.1960
60.1311
60.424
59.9731
59.9480
59.9406
59.9424
59.9632
60.139
60.587
60.1083
60.1274
60.1113
60.634
60.102
59.9475
59.8792
59.8142
59.7635
59.6788
59.6127
59.5743
59.5743
59.5824
59.6147
59.6892
59.7914
59.8689
59.8977
59.9075
59.9017
59.8569
59.8059
59.7795
59.7443
59.6996
59.6406
59.6281
59.6544
59.6934
59.7560
59.8449
59.9459
60.399
60.1267
60.1710
60.1788
60.1845
60.1755
60.1650
60.1363
60.1165
60.787
60.366
60.209
60.398
60.695
60.1087
60.1893
60.2912
60.3812
60.4314
60.4509
60.4461
60.4008
60.3311
60.2695
60.2108
60.1426
60.587
60.153
60.70
60.104
60.270
60.554
60.1152
60.1677
60.2036
60.2084
60.1781
60.1334
60.803
60.175
59.9508
59.8885
59.8162
59.7383
59.6689
59.6479
59.6499
59.6606
59.7016
59.7912
59.8871
59.9566
59.9894
59.9979
59.9891
59.9465
59.9033
59.8698
59.8259
59.7725
59.7343
59.7393
59.7722
59.8093
59.8758
59.9650
60.576
60.1411
60.2010
60.2277
60.2325
60.2269
60.2119
60.1828
60.1560
60.1332
60.931
60.545
60.558
60.837
60.1184
60.1649
60.2527
60.3474
60.4216
60.4512
60.4571
60.4439
60.3782
60.3068
60.2429
60.1734
60.910
60.212
59.9847
59.9678
59.9649
59.9816
60.205
60.729
60.1295
60.1561
60.1529
60.1219
60.711
60.148
59.9553
59.8822
59.8257
59.7517
59.6689
59.6232
59.6103
59.6126
59.6366
59.6940
59.7881
59.8756
59.9178
59.9370
59.9395
59.9176
59.8689
59.8298
59.7998
59.7582
59.7018
59.6847
59.7095
59.7459
59.8013
59.8817
59.9764
60.725
60.1614
60.2154
60.2319
60.2246
60.2131
60.1926
60.1645
60.1347
60.1044
60.578
60.273
60.388
60.798
60.1189
60.1858
60.2852
60.3900
60.4544
60.4731
60.4755
60.4502
60.3826
60.3168
60.2533
60.1848
60.1112
60.524
60.269
60.197
60.255
60.431
60.890
60.1332
60.1752
60.1842
60.1542
60.960
60.366
59.9681
59.8997
59.8404
59.7758
59.7033
59.6374
59.6074
59.6060
59.6236
59.6600
59.7380
59.8361
59.9095
59.9375
59.9412
59.9338
59.8948
59.8457
59.8124
59.7787
59.7270
59.6777
59.6720
59.6960
59.7284
59.7878
59.8727
59.9715
60.601
60.1403
60.1845
60.1975
60.1954
60.1843
60.1701
60.1423
60.1245
60.860
60.464
60.316
60.634
60.958
60.1349
60.2151
60.3176
60.4072
60.4514
60.4661
60.4620
60.4135
60.3463
60.2819
60.2141
60.1452
60.610
60.143
60.45
60.37
60.86
60.414
60.950
60.1462
60.1832
60.1855
60.1478
60.1031
60.440
59.9766
59.9068
59.8405
59.7697
59.6837
59.6228
59.6028
59.6019
59.6147
59.6576
59.7467
59.8426
59.8946
59.9134
59.9275
59.9156
59.8736
59.8305
59.7972
59.7566
59.7072
59.6719
59.6805
59.7111
59.7589
59.8251
59.9172
60.91
60.945
60.1544
60.1814
60.1770
60.1712
60.1555
60.1289
60.1016
60.816
60.382
60.73
60.129
60.465
60.890
60.1410
60.2349
60.3395
60.4164
60.4440
60.4535
60.4381
60.3757
60.3085
60.2518
60.1817
60.1086
60.316
59.9986
59.9955
59.9963
60.165
60.638
60.1107
60.1521
60.1733
60.1611
60.1191
60.731
60.139
59.9480
59.8847
59.8327
59.7656
59.6931
59.6523
59.6539
59.6666
59.6834
59.7474
59.8390
59.9219
59.9543
59.9674
59.9618
59.9267
59.8814
59.8385
59.7994
59.7610
59.7131
59.6933
59.7175
59.7539
59.8134
59.8889
59.9814
60.746
60.1598
60.2125
60.2240
60.2372
60.2277
60.2079
60.1816
60.1566
60.1237
60.778
60.498
60.647
60.915
60.1238
60.1766
60.2688
60.3602
60.4174
60.4410
60.4512
60.4290
60.3690
60.3116
60.2536
60.1885
60.1067
60.479
60.297
60.258
60.317
60.600
60.1098
60.1554
60.1950
60.2051
60.1765
60.1304
60.786
60.138
59.9456
59.8744
59.8067
59.7319
59.6625
59.6330
59.6265
59.6366
59.6712
59.7588
59.8549
59.9280
59.9575
59.9720
59.9686
59.9301
59.8866
59.8504
59.8130
59.7662
59.7158
59.7111
59.7309
59.7645
59.8201
59.9027
59.9953
60.912
60.1706
60.2087
60.2114
60.2142
60.1961
60.1804
60.1493
60.1272
60.907
60.520
60.430
60.638
60.1082
60.1492
60.2258
60.3370
60.4234
60.4644
60.4819
60.4718
60.4276
60.3612
60.2932
60.2314
60.1533
60.630
60.154
59.9975
59.9906
60.38
60.392
60.950
60.1443
60.1837
60.1943
60.1676
60.1245
60.699
60.31
59.9224
59.8547
59.7901
59.7084
59.6452
59.6311
59.6307
59.6431
59.6851
59.7750
59.8588
59.9053
59.9261
59.9281
59.9074
59.8595
59.8203
59.7931
59.7523
59.6949
59.6632
59.6802
59.7160
59.7615
59.8283
59.9208
60.262
60.1247
60.1882
60.2029
60.2097
60.2026
60.1904
60.1641
60.1302
60.1051
60.511
60.182
60.194
60.517
60.873
60.1456
60.2381
60.3364
60.4161
60.4557
60.4713
60.4618
60.4100
60.3427
60.2881
60.2201
60.1399
60.653
60.318
60.283
60.240
60.476
60.903
60.1454
60.1897
60.2093
60.1939
60.1493
60.983
60.352
59.9679
59.9019
59.8396
59.7631
59.6831
59.6369
59.6314
59.6448
59.6690
59.7487
59.8441
59.9294
59.9741
59.9823
59.9836
59.9588
59.9054
59.8691
59.8282
59.7825
59.7216
59.7048
59.7278
59.7685
59.8189
59.8928
59.9920
60.830
60.1688
60.2237
60.2353
60.2414
60.2312
60.2170
60.1862
60.1664
60.1324
60.878
60.649
60.804
60.1103
60.1430
60.2122
60.3124
60.4024
60.4493
60.4646
60.4639
60.4300
60.3626
60.2994
60.2435
60.1785
60.996
60.405
60.325
60.314
60.435
60.695
60.1286
60.1805
60.2249
60.2286
60.2026
60.1622
60.1118
60.567
59.9919
59.9266
59.8651
59.7817
59.7110
59.6782
59.6724
59.6716
59.7008
59.7845
59.8765
59.9370
59.9604
59.9730
59.9630
59.9293
59.8890
59.8571
59.8207
59.7737
59.7313
59.7367
59.7642
59.8023
59.8538
59.9367
60.301
60.1200
60.1872
60.2162
60.2185
60.2138
60.2069
60.1801
60.1490
60.1221
60.691
60.306
60.217
60.430
60.779
60.1153
60.1974
60.3030
60.3886
60.4267
60.4404
60.4292
60.3880
60.3183
60.2562
60.1993
60.1229
60.374
59.9920
59.9763
59.9684
59.9810
60.166
60.683
60.1129
60.1491
60.1472
60.1189
60.732
60.171
59.9574
59.8923
59.8292
59.7624
59.6815
59.6267
59.6052
59.6070
59.6159
59.6695
59.7609
59.8480
59.8983
59.9200
59.9193
59.9026
59.8527
59.8176
59.7884
59.7567
59.7060
59.6799
59.6948
59.7256
59.7689
59.8353
59.9298
60.278
60.1198
60.1824
60.2152
60.2233
60.2249
60.2122
60.1892
60.1585
60.1221
60.732
60.363
60.465
60.752
60.1046
60.1591
60.2559
60.3521
60.4195
60.4496
60.4545
60.4359
60.3778
60.3114
60.2546
60.1936
60.1102
60.423
60.241
60.203
60.228
60.441
60.850
60.1346
60.1790
60.2035
60.1800
60.1427
60.856
60.246
59.9598
59.8814
59.8243
59.7494
59.6722
59.6312
59.6200
59.6256
59.6459
59.7138
59.8109
59.8922
59.9303
59.9455
59.9487
59.9230
59.8846
59.8501
59.8123
59.7733
59.7223
59.7097
59.7310
59.7738
59.8161
59.8938
59.9877
60.813
60.1662
60.2103
60.2211
60.2277
60.2208
60.2059
60.1781
60.1615
60.1355
60.884
60.707
60.878
60.1174
60.1550
60.2243
60.3261
60.4214
60.4742
60.5017
60.5038
60.4711
60.4077
60.3453
60.2854
60.2159
60.1336
60.818
60.565
60.529
60.576
60.848
60.1332
60.1825
60.2315
60.2414
60.2093
60.1635
60.1127
60.482
59.9833
59.9107
59.8523
59.7712
59.7011
59.6717
59.6718
59.6858
59.7227
59.8068
59.9061
59.9735
60.5
60.61
59.9978
59.9513
59.9105
59.8776
59.8373
59.7829
59.7490
59.7588
59.7821
59.8252
59.8922
59.9845
60.819
60.1773
60.2428
60.2754
60.2794
60.2769
60.2605
60.2331
60.2027
60.1767
60.1316
60.962
60.921
60.1162
60.1514
60.1950
60.2798
60.3825
60.4597
60.4962
60.5061
60.4954
60.4416
60.3792
60.3320
60.2604
60.1832
60.1027
60.689
60.550
60.581
60.799
60.1253
60.1770
60.2196
60.2418
60.2279
60.1863
60.1355
60.731
60.33
59.9323
59.8663
59.8003
59.7235
59.6747
59.6719
59.6776
59.7014
59.7716
59.8669
59.9509
59.9904
60.47
60.32
59.9729
59.9230
59.8865
59.8501
59.8084
59.7485
59.7255
59.7445
59.7738
59.8283
59.9028
59.9920
60.776
60.1546
60.2010
60.2114
60.2154
60.2037
60.1896
60.1528
60.1345
60.1066
60.557
60.238
60.394
60.714
60.958
60.1566
60.2481
60.3381
60.3879
60.4094
60.4048
60.3689
60.3047
60.2404
60.1838
60.1144
60.297
59.9716
59.9473
59.9425
59.9454
59.9725
60.248
60.798
60.1313
60.1498
60.1288
60.801
60.237
59.9568
59.8865
59.8193
59.7657
59.6825
59.6054
59.5623
59.5508
59.5528
59.5783
59.6644
59.7636
59.8363
59.8656
59.8711
59.8630
59.8251
59.7736
59.7415
59.7102
59.6613
59.6212
59.6166
59.6481
59.6951
59.7537
59.8410
59.9396
60.315
60.1084
60.1398
60.1404
60.1407
60.1237
60.999
60.628
60.371
60.84
59.9762
59.9678
59.9993
60.425
60.821
60.1633
60.2684
60.3583
60.4022
60.4123
60.4039
60.3549
60.2872
60.2241
60.1593
60.884
60.44
59.9529
59.9438
59.9435
59.9569
59.9875
60.385
60.796
60.1174
60.1213
60.844
60.356
59.9717
59.9139
59.8472
59.7837
59.7261
59.6505
59.5944
59.5729
59.5812
59.5943
59.6420
59.7259
59.8148
59.8719
59.8856
59.8777
59.8596
59.8199
59.7726
59.7378
59.6955
59.6433
59.6131
59.6201
59.6532
59.7017
59.7705
59.8582
59.9618
60.544
60.1285
60.1600
60.1632
60.1592
60.1457
60.1292
60.1059
60.801
60.422
59.9992
59.9976
60.284
60.563
60.975
60.1788
60.2704
60.3393
60.3673
60.3749
60.3709
60.3220
60.2592
60.2082
60.1563
60.830
60.100
59.9786
59.9762
59.9785
59.9928
60.376
60.827
60.1265
60.1542
60.1424
60.949
60.478
59.9878
59.9162
59.8368
59.7705
59.6998
59.6220
59.5698
59.5553
59.5644
59.5844
59.6508
59.7434
59.8378
59.8872
59.9179
59.9171
59.8959
59.8461
59.8046
59.7758
59.7371
59.6891
59.6666
59.6795
59.7125
59.7529
59.8213
59.9171
60.151
60.965
60.1476
60.1629
60.1575
60.1521
60.1374
60.1159
60.884
60.624
60.206
59.9929
60.42
60.377
60.756
60.1399
60.2387
60.3340
60.3978
60.4155
60.4218
60.4040
60.3393
60.2716
60.2120
60.1446
60.626
60.7
59.9787
59.9711
59.9764
60.69
60.571
60.1072
60.1528
60.1686
60.1540
60.1138
60.612
59.9962
59.9316
59.8630
59.8018
59.7237
59.6526
59.6174
59.6152
59.6272
59.6518
59.7235
59.8146
59.8824
59.9106
59.9180
59.9098
59.8700
59.8221
59.7906
59.7592
59.7166
59.6638
59.6628
59.6851
59.7291
59.7888
59.8656
59.9621
60.521
60.1346
60.1768
60.1811
60.1727
60.1525
60.1280
60.993
60.731
60.451
59.9959
59.9725
59.9940
60.254
60.635
60.1369
60.2424
60.3337
60.3873
60.4030
60.3903
60.3494
60.2791
60.2138
60.1531
60.869
60.67
59.9601
59.9432
59.9368
59.9463
59.9709
60.194
60.667
60.1011
60.979
60.644
60.142
59.9617
59.8999
59.8290
59.7640
59.6990
59.6237
59.5562
59.5343
59.5385
59.5550
59.5912
59.6687
59.7611
59.8261
59.8517
59.8655
59.8582
59.8187
59.7780
59.7415
59.7131
59.6602
59.6204
59.6281
59.6554
59.6959
59.7552
59.8471
59.9412
60.376
60.1123
60.1391
60.1454
60.1427
60.1299
60.1075
60.855
60.658
60.325
59.9965
59.9943
60.204
60.564
60.1016
60.1790
60.2784
60.3619
60.4032
60.4148
60.4032
60.3474
60.2791
60.2195
60.1569
60.867
60.92
59.9755
59.9676
59.9744
59.9894
60.307
60.831
60.1445
60.1764
60.1723
60.1328
60.869
60.337
59.9721
59.9011
59.8381
59.7704
59.6871
59.6301
59.6153
59.6233
59.6402
59.6902
59.7802
59.8607
59.9062
59.9204
59.9237
59.9006
59.8559
59.8176
59.7888
59.7529
59.7035
59.6781
59.6941
59.7311
59.7871
59.8601
59.9606
60.632
60.1509
60.2142
60.2330
60.2337
60.2284
60.2063
60.1778
60.1441
60.1214
60.728
60.483
60.575
60.936
60.1218
60.1778
60.2799
60.3883
60.4541
60.4867
60.4949
60.4731
60.4096
60.3481
60.2889
60.2260
60.1492
60.825
60.605
60.531
60.538
60.748
60.1306
60.1843
60.2279
60.2437
60.2258
60.1799
60.1275
60.691
60.34
59.9314
59.8726
59.7943
59.7293
59.7005
59.7076
59.7234
59.7507
59.8274
59.9162
59.9983
60.311
60.388
60.257
59.9851
59.9321
59.8879
59.8503
59.8019
59.7520
59.7525
59.7804
59.8212
59.8882
59.9665
60.584
60.1524
60.2326
60.2834
60.2890
60.2875
60.2785
60.2611
60.2254
60.1955
60.1543
60.1116
60.884
60.1130
60.1450
60.1846
60.2595
60.3557
60.4455
60.4891
60.5061
60.4998
60.4599
60.3901
60.3293
60.2581
60.1854
60.965
60.504
60.398
60.410
60.557
60.939
60.1472
60.1969
60.2376
60.2399
60.2058
60.1613
60.1027
60.311
59.9602
59.8839
59.8189
59.7306
59.6679
59.6405
59.6435
59.6566
59.7040
59.7913
59.8860
59.9468
59.9708
59.9792
59.9681
59.9211
59.8774
59.8430
59.8024
59.7471
59.7164
59.7230
59.7491
59.7866
59.8500
59.9406
60.281
60.1161
60.1793
60.2070
60.2172
60.2145
60.1972
60.1689
60.1354
60.1099
60.634
60.197
60.183
60.531
60.872
60.1353
60.2223
60.3190
60.3913
60.4193
60.4229
60.4102
60.3537
60.2816
60.2165
60.1521
60.667
59.9842
59.9472
59.9314
59.9318
59.9448
59.9850
60.376
60.892
60.1246
60.1219
60.849
60.396
59.9789
59.9110
59.8419
59.7817
59.7069
59.6198
59.5674
59.5549
59.5619
59.5827
59.6430
59.7375
59.8202
59.8654
59.8861
59.8848
59.8625
59.8104
59.7747
59.7462
59.7024
59.6471
59.6350
59.6519
59.6905
59.7355
59.8125
59.9112
60.24
60.976
60.1667
60.1872
60.1920
60.1900
60.1743
60.1479
60.1189
60.854
60.347
60.61
60.110
60.424
60.703
60.1312
60.2247
60.3257
60.3831
60.4097
60.4149
60.3884
60.3310
60.2709
60.2123
60.1419
60.610
60.20
59.9736
59.9669
59.9695
59.9916
60.433
60.976
60.1437
60.1605
60.1371
60.890
60.386
59.9759
59.9066
59.8316
59.7673
59.6900
59.6152
59.5793
59.5746
59.5820
59.6060
59.6893
59.7854
59.8608
59.8963
59.9155
59.9112
59.8801
59.8276
59.7867
59.7462
59.6998
59.6472
59.6355
59.6563
59.6897
59.7499
59.8293
59.9254
60.216
60.993
60.1429
60.1594
60.1558
60.1518
60.1279
60.1035
60.757
60.420
59.9919
59.9827
59.9996
60.317
60.695
60.1474
60.2464
60.3348
60.3803
60.4008
60.3949
60.3586
60.2911
60.2330
60.1645
60.901
60.47
59.9508
59.9295
59.9301
59.9405
59.9768
60.367
60.941
60.1384
60.1473
60.1184
60.816
60.312
59.9723
59.9050
59.8413
59.7806
59.7026
59.6377
59.6164
59.6102
59.6314
59.6755
59.7583
59.8496
59.9134
59.9398
59.9471
59.9343
59.8837
59.8406
59.8086
59.7709
59.7243
59.6901
59.6962
59.7204
59.7605
59.8286
59.9222
60.176
60.1082
60.1754
60.1998
60.1977
60.1914
60.1766
60.1525
60.1255
60.992
60.529
60.165
60.101
60.429
60.775
60.1344
60.2277
60.3322
60.4079
60.4401
60.4608
60.4458
60.3941
60.3279
60.2667
60.2044
60.1280
60.452
60.97
59.9994
59.9998
60.193
60.669
60.1194
60.1646
60.1899
60.1853
60.1468
60.991
60.406
59.9769
59.9128
59.8545
59.7827
59.6985
59.6521
59.6361
59.6425
59.6592
59.7184
59.8098
59.8934
59.9369
59.9570
59.9572
59.9298
59.8813
59.8410
59.8023
59.7615
59.7087
59.6854
59.6979
59.7318
59.7797
59.8540
59.9478
60.395
60.1217
60.1806
60.2004
60.2054
60.1992
60.1861
60.1614
60.1321
60.1002
60.517
60.139
60.214
60.502
60.846
60.1395
60.2310
60.3255
60.3903
60.4120
60.4156
60.3924
60.3319
60.2657
60.2063
60.1352
60.500
59.9836
59.9526
59.9505
59.9560
59.9761
60.208
60.683
60.1157
60.1391
60.1222
60.722
60.217
59.9536
59.8795
59.8090
59.7446
59.6601
59.5824
59.5410
59.5353
59.5429
59.5680
59.6439
59.7363
59.8147
59.8519
59.8768
59.8774
59.8493
59.8003
59.7654
59.7258
59.6849
59.6347
59.6250
59.6560
59.6920
59.7431
59.8299
59.9275
60.253
60.1101
60.1579
60.1670
60.1625
60.1490
60.1294
60.1033
60.842
60.504
60.71
59.9906
60.81
60.466
60.884
60.1586
60.2609
60.3556
60.4052
60.4202
60.4179
60.3846
60.3144
60.2537
60.1878
60.1182
60.344
59.9780
59.9537
59.9505
59.9537
59.9898
60.382
60.902
60.1360
60.1496
60.1219
60.881
60.342
59.9695
59.9096
59.8507
59.7903
59.7085
59.6476
59.6171
59.6178
59.6260
59.6679
59.7526
59.8421
59.9010
59.9217
59.9341
59.9227
59.8820
59.8407
59.8050
59.7672
59.7158
59.6833
59.6913
59.7250
59.7636
59.8255
59.9144
60.118
60.1051
60.1851
60.2200
60.2252
60.2295
60.2140
60.1967
60.1672
60.1457
60.1038
60.594
60.533
60.787
60.1133
60.1496
60.2370
60.3404
60.4260
60.4656
60.4832
60.4792
60.4340
60.3700
60.3117
60.2526
60.1771
60.1026
60.696
60.624
60.650
60.790
60.1245
60.1784
60.2222
60.2500
60.2413
60.1981
60.1528
60.934
60.272
59.9531
59.8902
59.8282
59.7530
59.7023
59.6909
59.7010
59.7171
59.7776
59.8749
59.9584
59.9995
60.207
60.299
60.61
59.9572
59.9207
59.8811
59.8410
59.7884
59.7622
59.7862
59.8198
59.8647
59.9381
60.279
60.1176
60.1969
60.2582
60.2733
60.2750
60.2656
60.2408
60.2174
60.1885
60.1603
60.1156
60.852
60.1023
60.1339
60.1626
60.2211
60.3151
60.4086
60.4659
60.4784
60.4700
60.4365
60.3690
60.2983
60.2372
60.1680
60.838
60.266
60.58
60.46
60.100
60.442
60.926
60.1439
60.1835
60.1964
60.1725
60.1235
60.751
60.78
59.9417
59.8721
59.8093
59.7266
59.6509
59.6145
59.6069
59.6151
59.6438
59.7192
59.8124
59.8773
59.9079
59.9169
59.9066
59.8699
59.8158
59.7885
59.7547
59.7171
59.6750
59.6780
59.7158
59.7540
59.8064
59.8938
59.9962
60.851
60.1635
60.1991
60.1984
60.1916
60.1754
60.1451
60.1051
60.766
60.449
60.47
59.9890
60.113
60.498
60.892
60.1710
60.2819
60.3766
60.4245
60.4387
60.4303
60.3858
60.3133
60.2488
60.1852
60.1181
60.380
59.9951
59.9836
59.9890
59.9997
60.333
60.823
60.1276
60.1634
60.1677
60.1309
60.766
60.123
59.9426
59.8688
59.8023
59.7364
59.6590
59.6026
59.5930
59.6004
59.6226
59.6746
59.7678
59.8669
59.9259
59.9446
59.9469
59.9379
59.8872
59.8379
59.8014
59.7596
59.7064
59.6736
59.6781
59.7029
59.7501
59.8119
59.9082
60.33
60.911
60.1563
60.1790
60.1830
60.1843
60.1730
60.1535
60.1255
60.1123
60.684
60.361
60.350
60.651
60.996
60.1463
60.2321
60.3355
60.4055
60.4284
60.4415
60.4277
60.3676
60.2996
60.2423
60.1774
60.1012
60.344
60.0
59.9912
59.9972
60.139
60.584
60.1119
60.1625
60.1872
60.1730
60.1382
60.860
60.256
59.9583
59.8931
59.8320
59.7622
59.6784
59.6297
59.6175
59.6155
59.6279
59.6876
59.7753
59.8648
59.9062
59.9208
59.9159
59.8925
59.8431
59.8137
59.7796
59.7379
59.6868
59.6692
59.6934
59.7337
59.7820
59.8528
59.9519
60.414
60.1245
60.1672
60.1796
60.1679
60.1494
60.1233
60.1041
60.759
60.509
60.71
59.9867
60.122
60.470
60.902
60.1532
60.2542
60.3575
60.4305
60.4477
60.4409
60.4060
60.3377
60.2662
60.2023
60.1343
60.494
59.9872
59.9681
59.9660
59.9681
59.9979
60.498
60.979
60.1440
60.1560
60.1339
60.900
60.396
59.9737
59.8992
59.8318
59.7730
59.6954
59.6241
59.5993
59.6037
59.6191
59.6497
59.7287
59.8161
59.8876
59.9200
59.9246
59.9202
59.8813
59.8335
59.7956
59.7549
59.7047
59.6585
59.6569
59.6867
59.7246
59.7755
59.8603
59.9587
60.582
60.1394
60.1780
60.1852
60.1833
60.1704
60.1443
60.1094
60.846
60.460
60.14
59.9828
60.34
60.387
60.779
60.1598
60.2640
60.3463
60.3939
60.4062
60.3982
60.3530
60.2816
60.2244
60.1616
60.954
60.206
59.9820
59.9749
59.9739
59.9883
60.214
60.764
60.1213
60.1541
60.1539
60.1230
60.789
60.180
59.9466
59.8757
59.8053
59.7410
59.6567
59.5910
59.5680
59.5740
59.5837
59.6295
59.7187
59.8139
59.8749
59.9021
59.9053
59.8915
59.8426
59.7967
59.7669
59.7266
59.6711
59.6301
59.6433
59.6677
59.7110
59.7681
59.8556
59.9463
60.395
60.1065
60.1294
60.1337
60.1288
60.1115
60.884
60.648
60.476
60.125
59.9716
59.9722
59.9984
60.353
60.864
60.1714
60.2691
60.3432
60.3787
60.3853
60.3706
60.3150
60.2519
60.1867
60.1227
60.460
59.9689
59.9323
59.9211
59.9221
59.9476
59.9866
60.455
60.903
60.1223
60.1098
60.678
60.231
59.9662
59.9000
59.8315
59.7660
59.7009
59.6215
59.5688
59.5526
59.5633
59.5845
59.6434
59.7349
59.8220
59.8691
59.8898
59.9011
59.8917
59.8622
59.8389
59.8357
59.8245
59.8081
59.8268
59.8807
59.9574
60.506
60.1841
60.3423
60.4946
60.6453
60.7634
60.8452
60.9237
60.9890
61.516
61.1125
61.1850
61.2525
61.3136
61.4015
61.5388
61.6913
61.8543
62.535
62.2938
62.5003
62.6717
62.8202
62.9405
63.303
63.1134
63.2063
63.2978
63.3771
63.4887
63.6424
63.8087
63.9877
64.2036
64.4368
64.6675
64.8722
65.373
65.1783
65.3200
65.4524
65.5857
65.7362
65.8712
66.43
66.1746
66.3843
66.6028
66.8651
67.1809
67.4989
67.7573
68.35
68.2178
68.3948
68.5837
68.7864
68.9711
69.1625
69.4170
69.6944
69.9860
70.3169
70.6656
71.191
71.3290
71.5889
71.8480
72.924
72.3268
72.5790
72.8126
73.397
73.3180
73.5999
73.8870
74.2421
74.6150
74.9441
75.2360
75.4937
75.6891
75.8991
76.1169
76.3197
76.5630
76.8324
77.1090
77.4228
77.7656
78.1066
78.3983
78.6457
78.8837
79.1049
79.3317
79.5850
79.7947
80.440
80.3176
80.5969
80.9677
81.3649
81.6947
82.90
82.2773
82.5229
82.7848
83.420
83.3118
83.6424
83.9682
84.3325
84.7307
85.1167
85.4493
85.7574
86.442
86.3146
86.6150
86.8783
87.1771
87.4948
87.8069
88.2045
88.6142
88.9574
89.2765
89.5022
89.7394
89.9876
90.2251
90.5272
90.8190
91.1479
91.5131
91.8704
92.1561
92.4213
92.6656
92.9207
93.1966
93.4317
93.7184
93.9982
94.3687
94.7981
95.1474
95.4821
95.7283
95.9934
96.2719
96.5671
96.9245
97.2657
97.6570
98.761
98.4472
98.7728
99.818
99.3666
99.6866
99.9660
100.3001
100.5950
100.9901
101.4122
101.7702
102.801
102.3073
102.5664
102.8121
103.1308
103.4365
103.7663
104.1425
104.4857
104.7660
105.222
105.2678
105.5579
105.8092
106.1047
106.3859
106.8104
107.2045
107.5607
107.8271
108.905
108.3738
108.6828
109.328
109.3841
109.8009
110.1951
110.5346
110.8444
111.1319
111.4501
111.7428
112.703
112.3779
112.8253
113.2037
113.5321
113.7491
114.57
114.2557
114.5828
114.8735
115.2332
115.6121
115.9186
116.1776
116.4212
116.7258
116.9866
117.2632
117.5562
117.9975
118.3594
118.6766
118.9224
119.2120
119.5218
119.8769
120.2269
120.6485
121.241
121.3563
121.6379
121.9626
122.2466
122.5770
122.8577
123.2951
123.6813
124.142
124.2345
124.4920
124.7796
125.916
125.4017
125.7725
126.897
126.3658
126.6031
126.9095
127.1821
127.4521
127.7844
128.2250
128.5802
128.8313
129.986
129.3772
129.7363
130.630
130.4632
130.8388
131.1607
131.4391
131.7677
132.667
132.3685
132.6885
133.1031
133.4681
133.6854
133.9308
134.2017
134.5256
134.8097
135.1879
135.4983
135.7587
136.16
136.2974
136.5742
136.8090
137.2327
137.6100
137.9105
138.1490
138.4409
138.8086
139.1309
139.5370
139.9160
140.2431
140.5098
140.8369
141.1620
141.4224
141.8375
142.2245
142.5196
142.7227
142.9828
143.3234
143.5947
143.9585
144.2683
144.5229
144.7747
145.727
145.3652
145.6236
146.622
146.4237
146.6538
146.9384
147.2615
147.6067
147.9705
148.3631
148.6960
148.9616
149.2943
149.6287
149.8774
150.3005
150.6879
150.9232
151.1618
151.4641
151.7730
152.777
152.4398
152.7132
152.9282
153.2546
153.5506
153.7791
154.2233
154.5979
154.8329
155.1063
155.4532
155.7734
156.1586
156.5188
156.8288
157.1145
157.4257
157.7472
158.513
158.4609
158.7874
158.9778
159.2471
159.5822
159.8619
160.2387
160.5188
160.7382
161.569
161.3428
161.5783
162.205
162.3856
162.6007
162.8836
163.2572
163.5771
163.9856
164.3233
164.5856
164.9162
165.2460
165.4857
165.9204
166.2867
166.4686
166.7303
167.742
167.3427
167.7135
167.9867
168.1977
168.5246
168.8151
169.972
169.5222
169.8295
170.693
170.3937
170.7360
171.963
171.4620
171.7573
172.733
172.4089
172.6462
173.596
173.4509
173.6335
173.8859
174.2436
174.5102
174.8815
175.1533
175.3919
175.7171
175.9703
176.3316
176.7385
176.9902
177.2652
177.6462
177.9579
178.3620
178.6954
178.9570
179.2899
179.5932
179.9218
180.3236
180.5591
180.7899
181.1520
181.4036
181.7771
182.628
182.2919
182.6283
182.8663
183.2590
183.6485
183.8648
184.1571
184.5459
184.8634
185.2447
185.5509
185.8585
186.2067
186.4228
186.8494
187.1960
187.3773
187.7058
187.9837
188.3380
188.6426
188.8461
189.1813
189.4397
189.7791
190.1821
190.4049
190.6979
191.852
191.4115
191.7757
192.720
192.3878
192.7398
192.9794
193.3959
193.6503
193.8655
194.2313
194.4718
194.8335
195.927
195.3707
195.6999
195.9148
196.3529
196.6505
196.8956
197.2792
197.5869
197.9692
198.2841
198.5729
198.9238
199.1334
199.5660
199.8524
200.650
200.4387
200.6718
201.309
201.2793
201.5858
201.9014
202.1513
202.5735
202.8170
203.926
203.4768
203.8090
204.1748
204.4289
204.7775
205.620
205.4003
205.7950
205.9437
206.2717
206.5371
206.8873
207.1735
207.4272
207.7693
207.9642
208.4149
208.6948
208.9472
209.3450
209.6511
210.159
210.2695
210.6081
210.8769
211.2252
211.6131
211.7718
212.1211
212.3404
212.7049
212.9580
213.2489
213.5659
213.8327
214.2557
214.4553
214.7884
215.1186
215.4926
215.8297
216.1030
216.4670
216.6756
217.1093
217.3102
217.5846
217.8932
218.2085
218.5182
218.7492
219.1012
219.2934
219.7415
219.9864
220.2925
220.6437
221.21
221.3443
221.6119
221.9707
222.1717
222.6080
222.7938
223.898
223.3751
223.7082
223.9841
224.2517
224.5795
224.8346
225.2583
225.4379
225.8206
226.1100
226.4992
226.7946
227.1151
227.3936
227.7280
228.987
228.2524
228.6385
228.8622
229.2143
229.4183
229.8011
229.9770
230.4378
230.6997
230.9871
231.3376
231.7009
232.243
232.2984
232.6420
232.9097
233.3207
233.4524
233.8434
234.618
234.4198
234.6247
235.174
235.1897
235.6487
235.8809
236.2039
236.5230
236.8946
237.1886
237.4915
237.7686
238.1170
238.4517
238.6107
238.9888
239.2762
239.5875
239.8295
240.1649
240.4350
240.8484
241.297
241.4442
241.7224
242.1017
242.3482
242.7373
242.9329
243.3810
243.5207
243.8993
244.1106
244.4715
244.6791
245.648
245.2560
245.7246
245.9113
246.3011
246.5853
246.9682
247.2194
247.6186
247.8038
248.2573
248.3937
248.7708
248.9887
249.3586
249.5625
249.9562
250.1479
250.6184
250.7920
251.2062
251.4782
251.8483
252.933
252.4781
252.6800
253.1162
253.2291
253.6366
253.8678
254.1930
254.4280
254.7645
255.606
255.4258
255.6265
256.255
256.3578
256.6671
256.9612
257.2093
257.5979
257.8307
258.1249
258.3785
258.7409
258.9418
259.3325
259.5049
259.9822
260.1563
260.5808
260.8567
261.2223
261.4619
261.8147
262.850
262.4317
262.6077
262.9229
263.2398
263.4571
263.8403
264.140
264.4920
264.6654
265.824
265.3406
265.7168
265.9504
266.2864
266.5620
266.8881
267.1073
267.3974
267.7398
267.9440
268.3459
268.5346
269.126
269.1689
269.5976
269.8843
270.2153
270.4855
270.7266
271.1444
271.3365
271.7036
271.9049
272.2848
272.4983
272.8361
273.1279
273.4461
273.7192
274.393
274.3971
274.6392
275.440
275.2194
275.6268
275.7420
276.948
276.4117
276.6213
277.190
277.2084
277.6813
277.8172
278.2318
278.5284
278.8124
279.1637
279.3532
279.8317
279.9267
280.3293
280.5573
280.8330
281.1658
281.3469
281.8417
281.9959
282.4340
282.7065
283.205
283.3180
283.5150
283.9873
284.850
284.5039
284.7215
284.9896
285.3274
285.5037
286.71
286.1468
286.5689
286.8475
287.1398
287.4906
287.6598
288.1347
288.2163
288.5962
288.8833
289.994
289.5132
289.7052
290.1470
290.3248
290.6901
291.451
291.2894
291.6876
291.8890
292.2347
292.4739
292.7084
293.896
293.2841
293.5755
293.9252
294.1502
294.5361
294.7674
295.1091
295.3247
295.5035
295.9303
295.9753
296.3417
296.5307
296.6893
297.347
297.1450
297.5102
297.6028
297.8712
298.1481
298.2926
298.5672
298.7186
298.8586
299.1090
299.1940
299.4227
299.5477
299.6258
299.9960
300.17
300.3034
300.4367
300.5440
300.8122
300.8216
301.661
301.746
301.1733
301.3767
301.3984
301.5328
301.7275
301.7654
302.101
302.667
302.1993
302.3186
302.3014
302.5706
302.4299
302.5870
302.7028
302.7001
302.8776
302.9078
302.9843
303.1323
303.1633
303.3095
303.3166
303.3118
303.5559
303.4209
303.6081
303.6286
303.5985
303.7987
303.7482
303.8919
303.9086
303.9687
304.1172
304.769
304.1092
304.2543
304.1517
304.3128
304.2597
304.2400
304.3774
304.2996
304.4778
304.3869
304.4630
304.5795
304.5426
304.6223
304.6584
304.5870
304.7030
304.6143
304.6499
304.7093
304.6169
304.8263
304.6810
304.8040
304.8685
304.8428
304.9589
304.9123
304.8945
304.9740
304.8961
304.9626
304.9484
304.8543
305.660
304.9114
305.645
305.861
305.567
305.1931
305.791
305.1208
305.1246
305.502
305.1257
305.682
304.9946
305.1805
305.321
305.1860
305.1540
305.1113
305.2399
305.1210
305.2158
305.1183
305.734
305.1438
305.525
305.308
305.1596
305.567
305.2060
305.1599
305.1516
305.2327
305.1058
305.2407
305.605
305.534
305.1083
305.118
305.571
305.1033
305.293
305.1565
305.967
305.1236
305.1307
305.36
305.1659
304.9279
304.9785
305.33
304.8999
304.9927
304.9475
304.9183
304.9981
304.9517
305.211
304.9728
304.8658
305.330
304.8133
304.9135
304.8846
304.7782
304.9013
304.7995
304.8446
304.8515
304.8247
304.9173
304.8347
304.7757
304.9156
304.7241
304.8335
304.7599
304.6664
304.7828
304.6612
304.7653
304.6854
304.6904
304.7646
304.6732
304.6781
304.7296
304.5859
304.6842
304.5776
304.5444
304.5981
304.4709
304.6172
304.4533
304.5210
304.5741
304.5096
304.5788
304.5236
304.4521
304.5169
304.4166
304.4420
304.4134
304.2926
304.4888
304.3200
304.4314
304.4373
304.3786
304.4859
304.3569
304.3761
304.3658
304.2728
304.3363
304.2541
304.1639
304.3316
304.1735
304.3101
304.2762
304.2288
304.3208
304.1920
304.2912
304.1548
304.1080
304.1751
304.677
304.696
304.1538
304.597
304.1795
304.1099
304.1243
304.1603
304.264
304.1830
303.9635
303.9996
304.328
303.9336
304.118
303.9761
303.9421
304.295
303.9752
304.310
303.9706
303.8698
304.434
303.8088
303.9036
303.8698
303.7645
303.8905
303.7773
303.8386
303.8124
303.7880
303.8677
303.7687
303.7317
303.8536
303.6889
303.7976
303.7048
303.6347
303.7204
303.5984
303.7432
303.6090
303.6435
303.7001
303.6311
303.6758
303.6654
303.5711
303.6530
303.5444
303.5610
303.5549
303.4250
303.6175
303.4296
303.5414
303.5553
303.4935
303.5990
303.4758
303.4844
303.4686
303.3765
303.4468
303.3431
303.2665
303.4300
303.2847
303.4252
303.3892
303.3529
303.4496
303.3202
303.4352
303.2616
303.2391
303.3012
303.1918
303.2078
303.2657
303.1889
303.2962
303.2410
303.2799
303.2798
303.1646
303.3405
303.953
303.1757
303.1802
303.768
303.1921
303.1112
303.1212
303.1441
303.1099
303.1929
303.1037
303.441
303.1865
302.9893
303.1005
303.310
302.9501
303.581
302.9532
303.694
302.9578
302.9833
303.527
302.9812
303.286
303.363
302.9229
303.153
302.9053
302.9096
302.9168
302.8104
303.54
302.8260
302.9431
302.9612
302.9014
303.104
302.8894
302.9081
302.8893
302.8038
302.8685
302.7806
302.7039
302.8638
302.7340
302.8764
302.8213
302.7812
302.8754
302.7398
302.8596
302.6865
302.6784
302.7355
302.6318
302.6706
302.7002
302.6359
302.7434
302.6949
302.7512
302.7224
302.6141
302.7794
302.5415
302.6356
302.6276
302.5221
302.6416
302.5489
302.5911
302.5861
302.5761
302.6608
302.5632
302.5333
302.6384
302.4657
302.5767
302.4918
302.4349
302.5163
302.3865
302.5334
302.3745
302.4429
302.4987
302.4242
302.4996
302.4409
302.3828
302.4365
302.3316
302.3757
302.3326
302.2204
302.4139
302.2407
302.3822
302.3675
302.3180
302.4353
302.2959
302.3836
302.2895
302.2487
302.3207
302.2173
302.2091
302.2912
302.1878
302.3208
302.2631
302.2649
302.2859
302.1646
302.3272
302.958
302.1667
302.1842
302.841
302.1795
302.1098
302.1162
302.1679
302.1411
302.2304
302.1393
302.852
302.2340
302.580
302.1735
302.1026
302.198
302.1329
302.183
302.1426
302.265
302.728
302.1385
302.820
302.1292
302.1127
302.395
302.1203
302.27
302.317
302.1
301.8922
302.1028
301.9123
302.417
302.394
301.9803
302.971
301.9569
302.242
301.9446
301.8805
301.9516
301.8550
301.8327
301.9494
301.8539
301.9814
301.9293
301.9372
301.9779
301.8658
302.307
301.8024
301.8544
301.8839
301.7883
301.8847
301.8350
301.8319
301.8759
301.8458
301.9335
301.8495
301.8002
301.9507
301.7585
301.8692
301.7963
301.7273
301.8307
301.7155
301.8492
301.7282
301.7713
301.8475
301.7769
301.8287
301.8118
301.7378
301.8101
301.7010
301.7387
301.7120
301.6060
301.8099
301.6345
301.7727
301.7666
301.7164
301.8278
301.6957
301.7716
301.6897
301.6423
301.7297
301.6250
301.6126
301.7042
301.6125
301.7352
301.6692
301.6880
301.7061
301.5867
301.7592
301.5179
301.5749
301.5968
301.4998
301.6030
301.5256
301.5443
301.5722
301.5353
301.6303
301.5507
301.5040
301.6381
301.4729
301.5840
301.4944
301.4409
301.5359
301.4150
301.5757
301.4331
301.4967
301.5623
301.5015
301.5737
301.5204
301.4834
301.5316
301.4353
301.4852
301.4341
301.3393
301.5266
301.3724
301.5111
301.4946
301.4435
301.5538
301.4201
301.5238
301.3796
301.3584
301.4153
301.3187
301.3440
301.3890
301.3290
301.4440
301.3873
301.4429
301.4188
301.3062
301.4850
301.2558
301.3641
301.3515
301.2658
301.3952
301.2927
301.3630
301.3408
301.3415
301.4296
301.3369
301.3414
301.4172
301.2859
301.3952
301.2937
301.2757
301.3191
301.2034
301.3820
301.2157
301.3156
301.3478
301.2991
301.4069
301.3104
301.3154
301.3062
301.2284
301.3023
301.2099
301.1517
301.3128
301.1889
301.3379
301.2907
301.2703
301.3491
301.2194
301.3631
301.1654
301.1989
301.2467
301.1672
301.2446
301.2221
301.2008
301.2790
301.2467
301.3152
301.2356
301.1681
301.3200
301.1146
301.2309
301.1687
301.832
301.2108
301.991
301.2139
301.1127
301.1473
301.2170
301.1417
301.2028
301.1960
301.1111
301.1985
301.938
301.1304
301.1004
300.9828
301.1768
301.28
301.1479
301.1438
301.985
301.2258
301.948
301.1884
301.914
301.485
301.1204
301.173
301.255
301.976
301.112
301.1322
301.792
301.1210
301.1209
301.24
301.1732
300.9424
301.405
301.342
300.9359
301.551
300.9670
301.288
301.158
301.154
301.954
301.73
300.9989
301.899
300.9500
301.679
300.9610
300.9407
300.9972
300.8908
301.744
300.9007
301.46
301.481
300.9914
301.875
300.9926
300.9970
301.0
300.9166
300.9952
300.9126
300.8580
301.194
300.8989
301.393
300.9945
300.9862
301.627
300.9322
301.797
300.8731
300.9084
300.9550
300.8665
300.9379
300.9087
300.9059
300.9764
300.9488
301.323
300.9564
300.8849
301.409
300.8438
300.9561
300.8973
300.8410
300.9618
300.8564
300.9927
300.8706
300.9154
300.9832
300.9208
300.9751
300.9465
300.8870
300.9587
300.8444
300.8952
300.8516
300.7527
300.9486
300.7832
300.9197
300.9104
300.8667
300.9862
300.8506
300.9575
300.8204
300.7959
300.8679
300.7779
300.8017
300.8457
300.7851
300.8993
300.8457
300.9077
300.8930
300.7947
300.9696
300.7358
300.8397
300.8266
300.7249
300.8585
300.7592
300.8446
300.7980
300.8013
300.8867
300.7943
300.8087
300.8572
300.7405
300.8470
300.7448
300.7536
300.7718
300.6409
300.8361
300.6515
300.7771
300.8006
300.7554
300.8706
300.7503
300.7926
300.7469
300.6867
300.7702
300.6777
300.6533
300.7841
300.6793
300.8128
300.7639
300.7898
300.8347
300.7124
300.8935
300.6678
300.7340
300.7543
300.6612
300.7666
300.6984
300.7255
300.7462
300.7234
300.8102
300.7238
300.6876
300.8005
300.6390
300.7579
300.6637
300.6215
300.7010
300.5763
300.7513
300.5977
300.6857
300.7325
300.6769
300.7722
300.6839
300.6721
300.6982
300.6195
300.6919
300.6132
300.5475
300.7170
300.5827
300.7182
300.6819
300.6667
300.7580
300.6286
300.7725
300.5788
300.6077
300.6534
300.5604
300.6386
300.6090
300.5872
300.6729
300.6442
300.7213
300.6535
300.5891
300.7421
300.5554
300.6840
300.6210
300.5478
300.6654
300.5526
300.6874
300.5657
300.6247
300.6886
300.6333
300.7084
300.6698
300.6034
300.6708
300.5761
300.6322
300.5870
300.4864
300.6770
300.5231
300.6588
300.6289
300.5899
300.7047
300.5653
300.6828
300.5376
300.5237
300.5837
300.4843
300.5263
300.5465
300.4920
300.6005
300.5492
300.6051
300.5675
300.4786
300.6422
300.4276
300.5401
300.5017
300.4090
300.5443
300.4367
300.5538
300.4796
300.5014
300.5892
300.5195
300.5550
300.5589
300.4710
300.5655
300.4562
300.4891
300.4849
300.3758
300.5718
300.4015
300.5429
300.5458
300.4941
300.6137
300.4872
300.5652
300.4686
300.4305
300.5099
300.4168
300.4237
300.5007
300.4312
300.5568
300.4936
300.5315
300.5286
300.4339
300.6157
300.3781
300.4788
300.4676
300.3872
300.5123
300.4100
300.4913
300.4502
300.4497
300.5434
300.4547
300.4650
300.5348
300.4132
300.5105
300.4087
300.4239
300.4616
300.3385
300.5266
300.3468
300.4628
300.4897
300.4379
300.5550
300.4355
300.4951
300.4482
300.3858
300.4725
300.3753
300.3524
300.4672
300.3708
300.5083
300.4602
300.4878
300.5127
300.4003
300.5753
300.3462
300.4215
300.4471
300.3547
300.4599
300.3861
300.4227
300.4306
300.4179
300.5134
300.4201
300.3980
300.5045
300.3625
300.4669
300.3790
300.3483
300.4034
300.2845
300.4709
300.2997
300.3906
300.4339
300.3941
300.4956
300.3865
300.3994
300.3849
300.3064
300.3860
300.2925
300.2446
300.3997
300.2979
300.4393
300.3937
300.3959
300.4526
300.3298
300.4975
300.2784
300.3300
300.3736
300.2739
300.3717
300.3229
300.3402
300.3775
300.3439
300.4365
300.3562
300.3122
300.4422
300.2789
300.3958
300.3153
300.2609
300.3400
300.2203
300.3940
300.2410
300.3216
300.3724
300.3260
300.4198
300.3373
300.3323
300.3561
300.2680
300.3477
300.2689
300.2043
300.3734
300.2520
300.3899
300.3464
300.3366
300.4141
300.2888
300.4441
300.2450
300.2829
300.3338
300.2410
300.3247
300.2952
300.2892
300.3481
300.3178
300.4051
300.3310
300.2774
300.4292
300.2417
300.3616
300.2898
300.2195
300.3314
300.2203
300.3724
300.2402
300.3099
300.3743
300.3172
300.3949
300.3413
300.3114
300.3662
300.2769
300.3356
300.2695
300.1917
300.3675
300.2303
300.3796
300.3617
300.3316
300.4278
300.3012
300.4335
300.2437
300.2680
300.3228
300.2192
300.2902
300.2914
300.2553
300.3530
300.3116
300.3951
300.3257
300.2578
300.4188
300.2103
300.3337
300.2823
300.2013
300.3234
300.2127
300.3465
300.2295
300.2830
300.3523
300.2903
300.3705
300.3465
300.2904
300.3496
300.2549
300.3111
300.2550
300.1706
300.3649
300.2010
300.3407
300.3231
300.2769
300.3841
300.2651
300.3801
300.2212
300.2163
300.2721
300.1900
300.2319
300.2496
300.2051
300.3126
300.2673
300.3369
300.2848
300.2122
300.3881
300.1685
300.2848
300.2462
300.1641
300.2898
300.1813
300.2997
300.2070
300.2619
300.3421
300.2707
300.3216
300.3180
300.2421
300.3323
300.2370
300.2749
300.2482
300.1504
300.3447
300.1818
300.3261
300.3111
300.2703
300.3945
300.2673
300.3645
300.2272
300.2088
300.2837
300.1823
300.2145
300.2546
300.1950
300.3131
300.2655
300.3370
300.3094
300.2232
300.3941
300.1725
300.2814
300.2589
300.1689
300.2976
300.1897
300.2980
300.2202
300.2474
300.3345
300.2568
300.2867
300.3175
300.2292
300.3206
300.2133
300.2398
300.2161
300.1048
300.3121
300.1475
300.2884
300.2793
300.2379
300.3629
300.2323
300.3242
300.2197
300.1813
300.2566
300.1655
300.1831
300.2597
300.1915
300.3149
300.2739
300.3277
300.3184
300.2200
300.4002
300.1742
300.2749
300.2633
300.1679
300.3090
300.2083
300.2984
300.2540
300.2570
300.3571
300.2759
300.2878
300.3383
300.2374
300.3446
300.2532
300.2675
300.2739
300.1700
300.3691
300.1994
300.3386
300.3529
300.3132
300.4320
300.3065
300.3782
300.3132
300.2658
300.3571
300.2676
300.2678
300.3628
300.2726
300.4102
300.3634
300.4034
300.4109
300.3034
300.4842
300.2640
300.3589
300.3623
300.2799
300.4085
300.3254
300.3918
300.3786
300.3697
300.4678
300.3878
300.3854
300.4743
300.3482
300.4522
300.3513
300.3430
300.3843
300.2670
300.4645
300.3028
300.4154
300.4534
300.4089
300.5231
300.4141
300.4614
300.4346
300.3625
300.4490
300.3594
300.3274
300.4560
300.3584
300.4974
300.4514
300.4645
300.5146
300.3924
300.5628
300.3305
300.3976
300.4151
300.3302
300.4376
300.3712
300.3986
300.4381
300.4193
300.5101
300.4269
300.4003
300.5247
300.3776
300.4936
300.4096
300.3623
300.4534
300.3328
300.5024
300.3369
300.4289
300.4742
300.4205
300.5248
300.4314
300.4282
300.4454
300.3572
300.4352
300.3601
300.2922
300.4483
300.3258
300.4735
300.4371
300.4217
300.5009
300.3783
300.5382
300.3439
300.3817
300.4176
300.3236
300.4203
300.3788
300.3729
300.4373
300.4132
300.4956
300.4255
300.3678
300.5039
300.3478
300.4712
300.3971
300.3400
300.4427
300.3232
300.4782
300.3489
300.4094
300.4630
300.4193
300.5016
300.4340
300.4001
300.4515
300.3605
300.4335
300.3756
300.2998
300.4736
300.3367
300.4840
300.4421
300.4177
300.5275
300.3914
300.5263
300.3464
300.3634
300.4149
300.3269
300.4045
300.3999
300.3717
300.4635
300.4210
300.4972
300.4439
300.3806
300.5406
300.3357
300.4539
300.4014
300.3318
300.4476
300.3348
300.4697
300.3631
300.4116
300.4724
300.4083
300.4663
300.4291
300.3664
300.4376
300.3367
300.3850
300.3463
300.2506
300.4398
300.2731
300.4183
300.4061
300.3590
300.4883
300.3501
300.4674
300.3327
300.3197
300.3873
300.2857
300.3286
300.3585
300.3141
300.4244
300.3704
300.4356
300.4022
300.3132
300.4920
300.2693
300.3737
300.3353
300.2464
300.3752
300.2650
300.3739
300.2886
300.3197
300.3996
300.3258
300.3731
300.3679
300.2936
300.3796
300.2822
300.3138
300.2985
300.1881
300.3985
300.2312
300.3689
300.3642
300.3238
300.4423
300.3145
300.4091
300.2944
300.2714
300.3511
300.2580
300.2721
300.3356
300.2729
300.3927
300.3352
300.3984
300.3816
300.2839
300.4613
300.2390
300.3465
300.3210
300.2322
300.3709
300.2651
300.3588
300.3063
300.3126
300.4043
300.3220
300.3508
300.3797
300.2786
300.3848
300.2734
300.2969
300.2911
300.1770
300.3786
300.2033
300.3322
300.3537
300.2985
300.4114
300.2848
300.3682
300.2894
300.2451
300.3240
300.2272
300.2134
300.3044
300.2236
300.3504
300.2977
300.3484
300.3468
300.2365
300.4176
300.1859
300.2801
300.2825
300.1937
300.3089
300.2119
300.2865
300.2623
300.2569
300.3612
300.2637
300.2738
300.3479
300.2279
300.3278
300.2217
300.2295
300.2543
300.1294
300.3321
300.1598
300.2830
300.3025
300.2548
300.3722
300.2620
300.3217
300.2722
300.2189
300.2988
300.2097
300.1811
300.3085
300.2151
300.3410
300.2825
300.3114
300.3291
300.2223
300.4055
300.1775
300.2538
300.2765
300.1876
300.2998
300.2206
300.2769
300.2819
300.2642
300.3648
300.2850
300.2709
300.3737
300.2378
300.3466
300.2549
300.2416
300.2955
300.1851
300.3706
300.1928
300.3067
300.3478
300.3045
300.4046
300.2890
300.3238
300.3081
300.2376
300.3157
300.2244
300.1830
300.3280
300.2207
300.3563
300.3132
300.3195
300.3642
300.2439
300.4116
300.1945
300.2570
300.2940
300.2004
300.3123
300.2374
300.2556
300.2838
300.2666
300.3623
300.2770
300.2530
300.3683
300.2160
300.3347
300.2482
300.2218
300.2919
300.1728
300.3503
300.1836
300.2779
300.3244
300.2707
300.3700
300.2820
300.2915
300.2896
300.2093
300.2913
300.2060
300.1368
300.2925
300.1812
300.3235
300.2840
300.2630
300.3331
300.2050
300.3726
300.1594
300.2119
300.2432
300.1537
300.2531
300.2043
300.2129
300.2606
300.2367
300.3246
300.2514
300.2128
300.3433
300.1822
300.3028
300.2316
300.1817
300.2663
300.1445
300.3118
300.1601
300.2386
300.2928
300.2428
300.3438
300.2690
300.2508
300.2724
300.1890
300.2574
300.1861
300.1093
300.2777
300.1537
300.2930
300.2484
300.2397
300.3277
300.1981
300.3500
300.1649
300.2051
300.2432
300.1531
300.2388
300.2112
300.2042
300.2661
300.2242
300.3174
300.2528
300.1917
300.3469
300.1685
300.2793
300.2066
300.1462
300.2394
300.1185
300.2745
300.1444
300.2173
300.2768
300.2229
300.3006
300.2466
300.2190
300.2725
300.1804
300.2497
300.1789
300.953
300.2841
300.1384
300.2854
300.2569
300.2268
300.3216
300.1958
300.3448
300.1658
300.1901
300.2492
300.1537
300.2150
300.1981
300.1788
300.2678
300.2275
300.3137
300.2436
300.1750
300.3469
300.1654
300.2902
300.2351
300.1554
300.2693
300.1522
300.2906
300.1673
300.2234
300.2959
300.2432
300.3075
300.2660
300.2292
300.2831
300.1797
300.2411
300.1906
300.973
300.3027
300.1520
300.2873
300.2703
300.2444
300.3522
300.2233
300.3469
300.1907
300.1961
300.2602
300.1703
300.2225
300.2343
300.1947
300.2991
300.2630
300.3334
300.2723
300.1803
300.3569
300.1558
300.2594
300.2115
300.1335
300.2513
300.1466
300.2762
300.1626
300.2073
300.2833
300.2242
300.2797
300.2530
300.1973
300.2744
300.1697
300.2252
300.1834
300.820
300.2828
300.1286
300.2672
300.2420
300.2052
300.3241
300.1994
300.3256
300.1871
300.1700
300.2362
300.1428
300.1820
300.2135
300.1676
300.2759
300.2312
300.3056
300.2533
300.1614
300.3410
300.1368
300.2501
300.2117
300.1350
300.2572
300.1539
300.2735
300.1810
300.2138
300.2998
300.2295
300.2859
300.3004
300.2206
300.3117
300.2173
300.2622
300.2295
300.1230
300.3256
300.1659
300.3040
300.3037
300.2512
300.3801
300.2503
300.3524
300.2333
300.2079
300.2860
300.1888
300.2138
300.2617
300.2011
300.3179
300.2661
300.3219
300.2922
300.2033
300.3832
300.1625
300.2805
300.2550
300.1589
300.2823
300.1772
300.2812
300.2242
300.2383
300.3238
300.2353
300.2749
300.3014
300.2034
300.3042
300.2001
300.2278
300.2256
300.1075
300.3014
300.1246
300.2638
300.2649
300.2193
300.3457
300.2175
300.3039
300.2062
300.1649
300.2424
300.1379
300.1491
300.2237
300.1473
300.2640
300.2117
300.2600
300.2531
300.1519
300.3241
300.838
300.1853
300.1782
300.928
300.2337
300.1337
300.2178
300.1787
300.1912
300.2742
300.1939
300.2222
300.2687
300.1621
300.2638
300.1614
300.1806
300.1927
300.791
300.2761
300.881
300.2165
300.2296
300.1856
300.3048
300.1754
300.2547
300.1817
300.1270
300.2131
300.1155
300.1147
300.2054
300.1356
300.2659
300.2192
300.2536
300.2615
300.1507
300.3331
300.1061
300.2113
300.2110
300.1225
300.2570
300.1615
300.2372
300.2118
300.2052
300.3055
300.2154
300.2305
300.3042
300.1864
300.2972
300.1976
300.1997
300.2285
300.1101
300.3188
300.1384
300.2582
300.2712
300.2243
300.3409
300.2131
300.2739
300.2264
300.1634
300.2373
300.1368
300.1158
300.2327
300.1454
300.2874
300.2370
300.2632
300.2929
300.1755
300.3617
300.1282
300.2063
300.2177
300.1172
300.2374
300.1636
300.2111
300.2031
300.1969
300.2969
300.2077
300.2062
300.2940
300.1617
300.2604
300.1638
300.1480
300.2044
300.812
300.2686
300.828
300.2039
300.2270
300.1695
300.2773
300.1645
300.2050
300.1701
300.962
300.1828
300.930
300.628
300.1965
300.982
300.2452
300.2000
300.2093
300.2406
300.1222
300.2938
300.665
300.1473
300.1710
300.790
300.1934
300.1236
300.1633
300.1740
300.1549
300.2436
300.1572
300.1442
300.2466
300.1106
300.2100
300.1203
300.1003
300.1540
300.338
300.2235
300.559
300.1643
300.2058
300.1567
300.2664
300.1587
300.1921
300.1809
300.1012
300.1857
300.924
300.462
300.1951
300.887
300.2325
300.1794
300.1961
300.2480
300.1285
300.2964
300.805
300.1468
300.1701
300.841
300.1840
300.1235
300.1501
300.1788
300.1565
300.2534
300.1601
300.1291
300.2440
300.928
300.2134
300.1267
300.925
300.1653
300.593
300.2295
300.688
300.1772
300.2220
300.1740
300.2761
300.1773
300.1865
300.1926
300.1132
300.1951
300.1094
300.590
300.2193
300.997
300.2400
300.2017
300.1976
300.2532
300.1344
300.2933
300.770
300.1416
300.1759
300.793
300.1768
300.1210
300.1303
300.1706
300.1479
300.2446
300.1682
300.1235
300.2485
300.921
300.2147
300.1249
300.677
300.1530
300.319
300.2051
300.502
300.1511
300.1955
300.1495
300.2482
300.1592
300.1491
300.1623
300.761
300.1591
300.690
300.39
300.1706
300.484
300.1876
300.1556
300.1402
300.2135
300.918
300.2452
300.394
300.788
300.1153
300.229
300.1130
300.596
300.591
300.1190
300.950
300.1952
300.1082
300.624
300.1980
300.245
300.1445
300.622
300.144
300.1094
299.9933
300.1634
300.186
300.898
300.1377
300.932
300.1846
300.1007
300.862
300.1076
300.177
300.948
300.200
299.9438
300.1028
299.9835
300.1231
300.881
300.827
300.1543
300.277
300.1729
299.9674
300.106
300.471
299.9585
300.440
300.35
300.100
300.664
300.460
300.1383
300.638
300.195
300.1510
299.9762
300.1054
300.284
299.9788
300.781
299.9612
300.1224
299.9786
300.556
300.1117
300.576
300.1499
300.834
300.644
300.939
300.87
300.774
300.46
299.9394
300.1154
299.9831
300.1130
300.802
300.612
300.1452
300.301
300.1732
299.9853
300.292
300.704
299.9809
300.598
300.277
300.253
300.952
300.648
300.1577
300.897
300.451
300.1991
300.217
300.1390
300.594
300.165
300.1029
299.9760
300.1353
299.9947
300.668
300.1310
300.793
300.1705
300.1101
300.859
300.1139
300.200
300.812
300.76
299.9415
300.1108
299.9693
300.1009
300.599
300.493
300.1369
300.95
300.1644
299.9591
299.9982
300.511
299.9705
300.539
300.165
300.136
300.894
300.579
300.1440
300.800
300.171
300.1572
299.9839
300.1050
300.287
299.9732
300.662
299.9502
300.1212
299.9734
300.392
300.1004
300.468
300.1185
300.514
300.296
300.662
299.9804
300.570
299.9792
299.9142
300.944
299.9659
300.1053
300.748
300.623
300.1454
300.174
300.1650
299.9655
299.9901
300.409
299.9559
300.344
300.58
299.9972
300.691
300.357
300.1180
300.472
299.9974
300.1429
299.9692
300.796
300.138
299.9538
300.530
299.9331
300.927
299.9572
300.213
300.852
300.324
300.1201
300.534
300.161
300.570
299.9775
300.415
299.9689
299.8905
300.664
299.9343
300.818
300.497
300.296
300.1279
300.50
300.1476
299.9616
299.9958
300.440
299.9523
300.320
300.101
299.9955
300.675
300.382
300.1218
300.628
300.59
300.1430
299.9580
300.743
300.61
299.9300
300.270
299.9104
300.601
299.9188
299.9899
300.534
299.9953
300.799
300.244
299.9844
300.276
299.9407
300.169
299.9484
299.8724
300.523
299.9177
300.562
300.192
300.38
300.1000
299.9861
300.1221
299.9307
299.9594
299.9974
299.9074
299.9894
299.9677
299.9558
300.260
299.9894
300.753
299.9953
299.9472
300.938
299.9138
300.430
299.9799
299.9092
300.110
299.9019
300.469
299.8987
299.9753
300.313
299.9826
300.686
300.32
299.9797
300.224
299.9244
299.9941
299.9280
299.8565
300.384
299.9096
300.445
300.27
299.9797
300.642
299.9354
300.802
299.9051
299.9422
299.9871
299.8955
299.9744
299.9457
299.9349
300.52
299.9670
300.461
299.9743
299.9243
300.694
299.8945
300.192
299.9510
299.8851
299.9892
299.8738
300.191
299.8852
299.9610
300.130
299.9633
300.552
299.9900
299.9720
300.147
299.9174
299.9903
299.9224
299.8362
300.155
299.8936
300.281
299.9917
299.9730
300.643
299.9296
300.754
299.8835
299.9125
299.9568
299.8668
299.9499
299.9099
299.8981
299.9684
299.9343
300.177
299.9505
299.8907
300.359
299.8632
299.9873
299.9085
299.8545
299.9489
299.8345
299.9963
299.8649
299.9386
299.9974
299.9475
300.330
299.9565
299.9467
299.9856
299.8960
299.9719
299.9070
299.8295
299.9962
299.8647
300.61
299.9714
299.9536
300.342
299.9171
300.562
299.8647
299.9029
299.9470
299.8608
299.9485
299.9144
299.9161
299.9837
299.9566
300.434
299.9706
299.9166
300.563
299.8885
300.91
299.9308
299.8765
299.9782
299.8561
300.238
299.8792
299.9585
300.180
299.9652
300.530
299.9789
299.9653
300.101
299.9244
299.9951
299.9198
299.8512
300.190
299.8926
300.415
300.50
299.9887
300.633
299.9292
300.885
299.8987
299.9398
299.9902
299.9086
299.9980
299.9666
299.9621
300.189
299.9830
300.836
300.77
299.9594
300.975
299.9260
300.432
299.9679
299.9141
300.122
299.8963
300.509
299.9078
299.9781
300.312
299.9789
300.675
299.9855
299.9810
300.63
299.9093
299.9831
299.9089
299.8428
300.135
299.8796
300.231
299.9928
299.9712
300.598
299.9221
300.731
299.8756
299.9199
299.9612
299.8678
299.9593
299.9183
299.9101
299.9756
299.9555
300.401
299.9606
299.9259
300.670
299.8950
300.111
299.9286
299.8721
299.9659
299.8562
300.138
299.8665
299.9580
300.96
299.9534
300.462
299.9704
299.9509
299.9925
299.9024
299.9695
299.8822
299.8200
299.9848
299.8576
299.9971
299.9519
299.9367
300.108
299.8985
300.547
299.8489
299.8930
299.9353
299.8516
299.9467
299.9132
299.9157
299.9794
299.9582
300.375
299.9628
299.9242
300.601
299.8843
300.42
299.9273
299.8745
299.9777
299.8695
300.320
299.8833
299.9746
300.179
299.9688
300.675
299.9940
299.9779
300.3
299.9229
299.9861
299.9087
299.8544
300.232
299.8901
300.397
300.12
299.9913
300.642
299.9420
300.1014
299.8923
299.9326
299.9658
299.8699
299.9649
299.9239
299.9305
299.9837
299.9638
300.541
299.9640
299.9223
300.515
299.8945
300.191
299.9328
299.8777
299.9635
299.8439
300.117
299.8605
299.9410
299.9803
299.9209
300.140
299.9269
299.9290
299.9575
299.8756
299.9501
299.8629
299.7957
299.9572
299.8490
299.9904
299.9433
299.9353
300.142
299.8922
300.529
299.8460
299.8961
299.9399
299.8536
299.9519
299.9003
299.9035
299.9532
299.9290
300.179
299.9439
299.9029
300.386
299.8762
299.9985
299.9262
299.8806
299.9519
299.8427
299.9992
299.8362
299.9250
299.9629
299.9125
300.142
299.9256
299.9176
299.9374
299.8556
299.9387
299.8540
299.8028
299.9633
299.8429
299.9855
299.9564
299.9531
300.209
299.8993
300.591
299.8443
299.9036
299.9422
299.8484
299.9453
299.9017
299.9185
299.9674
299.9368
300.301
299.9501
299.9171
300.501
299.8848
300.47
299.9214
299.8782
299.9561
299.8449
300.180
299.8552
299.9503
300.6
299.9486
300.538
299.9655
299.9752
299.9862
299.9085
299.9888
299.9008
299.8426
300.25
299.8934
300.383
299.9971
299.9950
300.554
299.9309
300.1073
299.8969
299.9468
299.9812
299.8960
299.9949
299.9312
299.9414
299.9883
299.9637
300.630
299.9802
299.9529
300.782
299.9186
300.289
299.9481
299.9041
299.9848
299.8737
300.522
299.8912
299.9782
300.260
299.9763
300.738
299.9875
299.9980
300.127
299.9315
300.116
299.9312
299.8701
300.256
299.9115
300.458
299.9990
299.9973
300.608
299.9380
300.1017
299.9002
299.9583
299.9986
299.9056
300.36
299.9375
299.9510
299.9885
299.9787
300.611
299.9738
299.9466
300.657
299.9039
300.222
299.9466
299.9063
299.9862
299.8754
300.451
299.8775
299.9700
300.213
299.9742
300.884
299.9931
299.9937
300.72
299.9304
300.60
299.9156
299.8654
300.170
299.9043
300.369
300.70
300.0
300.646
299.9432
300.1111
299.8896
299.9476
299.9811
299.8916
299.9957
299.9384
299.9560
299.9983
299.9895
300.923
299.9957
299.9656
300.941
299.9424
300.561
299.9724
299.9285
300.111
299.8989
300.824
299.9205
300.203
300.727
300.228
300.1278
300.213
300.275
300.318
299.9493
300.293
299.9520
299.8984
300.571
299.9396
300.808
300.417
300.436
300.1110
299.9997
300.1606
299.9456
300.50
300.339
299.9430
300.460
299.9886
300.88
300.459
300.294
300.1301
300.539
300.290
300.1262
299.9640
300.856
300.16
299.9613
300.410
299.9248
300.992
299.9404
300.380
300.854
300.284
300.1312
300.380
300.388
300.417
299.9623
300.318
299.9495
299.9002
300.513
299.9301
300.723
300.302
300.278
300.882
299.9757
300.1328
299.9115
299.9649
299.9949
299.8976
300.32
299.9535
299.9707
300.185
300.15
300.1005
300.99
299.9865
300.1096
299.9514
300.709
299.9843
299.9414
300.165
299.8973
300.686
299.9041
300.78
300.628
300.135
300.1156
300.180
300.188
300.266
299.9447
300.195
299.9353
299.8875
300.483
299.9243
300.653
300.165
300.126
300.771
299.9707
300.1351
299.9273
299.9819
300.174
299.9264
300.248
299.9706
299.9933
300.404
300.198
300.1119
300.411
300.13
300.1296
299.9690
300.862
299.9945
299.9528
300.379
299.9284
300.1011
299.9451
300.320
300.789
300.242
300.1218
300.307
300.439
300.490
299.9686
300.495
299.9613
299.9025
300.623
299.9536
300.886
300.454
300.447
300.1097
299.9954
300.1556
299.9388
299.9898
300.256
299.9388
300.364
299.9807
299.9923
300.433
300.158
300.1043
300.211
299.9842
300.1120
299.9604
300.685
299.9835
299.9427
300.320
299.9143
300.828
299.9248
300.143
300.567
300.108
300.1058
300.125
300.129
300.269
299.9450
300.241
299.9444
299.8958
300.506
299.9321
300.777
300.357
300.364
300.994
299.9762
300.1417
299.9296
299.9841
300.200
299.9353
300.272
299.9673
299.9784
300.279
300.66
300.928
300.105
299.9748
300.973
299.9371
300.475
299.9622
299.9148
299.9989
299.8756
300.377
299.8821
299.9739
300.195
299.9722
300.703
299.9738
299.9662
299.9853
299.9077
299.9767
299.9046
299.8510
300.136
299.9041
300.540
300.116
300.25
300.768
299.9468
300.1084
299.8972
299.9595
299.9816
299.8894
299.9826
299.9193
299.9370
299.9818
299.9546
300.538
299.9671
299.9402
300.669
299.9024
300.244
299.9416
299.8971
299.9773
299.8619
300.314
299.8746
299.9697
300.247
299.9736
300.848
300.14
300.148
300.370
299.9502
300.221
299.9410
299.8880
300.500
299.9358
300.708
300.272
300.234
300.995
299.9747
300.1307
299.9275
299.9781
300.131
299.9201
300.225
299.9714
299.9857
300.350
300.71
300.943
300.177
299.9812
300.1049
299.9447
300.668
299.9800
299.9433
300.287
299.9089
300.864
299.9294
300.282
300.713
300.190
300.1149
300.236
300.373
300.588
299.9756
300.481
299.9720
299.9182
300.824
299.9622
300.1096
300.669
300.620
300.1333
300.108
300.1505
299.9484
300.39
300.352
299.9479
300.422
299.9854
299.9884
300.425
300.158
300.1096
300.311
299.9967
300.1239
299.9623
300.906
300.90
299.9635
300.538
299.9425
300.1083
299.9496
300.473
300.951
300.451
300.1433
300.489
300.473
300.634
299.9880
300.626
299.9760
299.9128
300.726
299.9545
300.935
300.560
300.447
300.1194
299.9971
300.1502
299.9322
299.9849
300.222
299.9292
300.233
299.9716
299.9941
300.503
300.292
300.1179
300.307
300.43
300.1301
299.9729
300.988
300.177
299.9726
300.639
299.9529
300.1203
299.9625
300.450
300.1006
300.534
300.1504
300.661
300.675
300.820
299.9897
300.676
299.9841
299.9241
300.940
299.9828
300.1285
300.767
300.689
300.1492
300.275
300.1859
299.9838
300.364
300.694
299.9834
300.794
300.389
300.497
300.1099
300.762
300.1705
300.874
300.448
300.1791
300.128
300.1267
300.489
300.27
300.951
299.9811
300.1481
300.32
300.776
300.1254
300.722
300.1647
300.790
300.646
300.848
300.10
300.763
299.9985
299.9232
300.862
299.9620
300.1033
300.659
300.519
300.1237
299.9916
300.1441
299.9450
299.9857
300.316
299.9450
300.351
300.5
299.9934
300.535
300.187
300.1114
300.389
299.9966
300.1425
299.9741
300.958
300.229
299.9694
300.702
299.9466
300.1142
299.9662
300.403
300.868
300.388
300.1289
300.483
300.387
300.595
299.9752
300.530
299.9735
299.9113
300.751
299.9446
300.869
300.426
300.329
300.1166
299.9927
300.1427
299.9408
299.9913
300.376
299.9612
300.468
299.9936
300.42
300.704
300.386
300.1315
300.603
300.68
300.1485
299.9722
300.916
300.144
299.9646
300.584
299.9495
300.1036
299.9589
300.469
300.948
300.458
300.1446
300.574
300.393
300.788
299.9888
300.629
299.9938
299.9261
300.877
299.9578
300.1037
300.652
300.510
300.1440
300.218
300.1583
299.9570
300.43
300.465
299.9549
300.361
299.9961
299.9959
300.616
300.280
300.1170
300.516
300.54
300.1463
299.9757
300.901
300.94
299.9450
300.493
299.9399
300.921
299.9508
300.201
300.704
300.263
300.1247
300.451
300.233
300.581
299.9729
300.418
299.9673
299.9070
300.773
299.9375
300.916
300.549
300.364
300.1216
300.19
300.1545
299.9573
299.9921
300.303
299.9481
300.458
300.76
299.9878
300.576
300.314
300.1188
300.440
300.72
300.1416
299.9698
300.883
300.141
299.9465
300.505
299.9307
300.896
299.9552
300.323
300.811
300.261
300.1177
300.488
300.286
300.638
299.9758
300.422
299.9687
299.8988
300.769
299.9515
300.1006
300.564
300.423
300.1391
300.116
300.1549
299.9718
300.108
300.533
299.9627
300.454
300.112
300.38
300.698
300.333
300.1227
300.541
300.59
300.1438
299.9691
300.867
300.151
299.9651
300.698
299.9514
300.1101
299.9689
300.473
300.1121
300.564
300.1489
300.735
300.457
300.867
299.9960
300.615
299.9947
299.9234
300.906
299.9476
300.979
300.708
300.553
300.1477
300.241
300.1716
299.9807
300.125
300.530
299.9606
300.295
300.70
299.9967
300.639
300.327
300.1166
300.409
299.9921
300.1424
299.9525
300.679
299.9997
299.9401
300.475
299.9371
300.887
299.9492
300.200
300.805
300.255
300.1079
300.427
300.245
300.713
299.9729
300.455
299.9788
299.9031
300.818
299.9567
300.1078
300.736
300.584
300.1426
300.76
300.1506
299.9663
299.9924
300.346
299.9525
300.289
300.134
300.22
300.786
300.322
300.1108
300.300
299.9755
300.1244
299.9453
300.687
300.20
299.9353
300.457
299.9328
300.873
299.9528
300.265
300.910
300.486
300.1272
300.629
300.440
300.884
299.9934
300.607
299.9908
299.9159
300.906
299.9607
300.1007
300.629
300.377
300.1355
300.86
300.1391
299.9491
299.9801
300.286
299.9420
300.269
300.76
299.9854
300.670
300.363
300.1165
300.544
300.23
300.1610
299.9912
300.1068
300.439
299.9849
300.936
299.9767
300.1260
299.9890
300.571
300.1122
300.610
300.1537
300.906
300.567
300.1147
300.221
300.832
300.149
299.9375
300.1206
299.9862
300.1291
300.1017
300.771
300.1646
300.400
300.1700
299.9907
300.255
300.739
299.9845
300.642
300.510
300.322
300.1144
300.849
300.1607
300.987
300.355
300.1964
300.122
300.1372
300.730
299.9972
300.1090
300.23
300.1272
299.9981
300.659
300.1251
300.743
300.1596
300.1108
300.644
300.1272
300.336
300.896
300.232
299.9391
300.1183
299.9808
300.1190
300.838
300.515
300.1560
300.260
300.1583
299.9819
299.9948
300.575
299.9779
300.458
300.343
300.79
300.946
300.547
300.1408
300.748
300.81
300.1565
299.9564
300.819
300.232
299.9626
300.846
299.9666
300.994
299.9809
300.389
300.1002
300.485
300.1203
300.729
300.318
300.877
299.9880
300.404
299.9814
299.9064
300.919
299.9506
300.937
300.706
300.469
300.1513
300.286
300.1658
299.9962
300.193
300.664
299.9738
300.428
300.463
300.167
300.1058
300.683
300.1513
300.923
300.272
300.1879
299.9943
300.1166
300.551
299.9712
300.892
299.9769
300.1200
300.105
300.703
300.1272
300.736
300.1378
300.1020
300.605
300.1208
300.132
300.741
300.290
299.9513
300.1392
299.9919
300.1295
300.1129
300.774
300.1895
300.589
300.1895
300.274
300.301
300.851
299.9915
300.544
300.569
300.307
300.1237
300.670
300.1393
300.853
300.126
300.1846
299.9819
300.1018
300.498
299.9683
300.877
299.9700
300.990
299.9738
300.234
300.970
300.415
300.1058
300.719
300.200
300.887
299.9947
300.511
300.27
299.9164
300.1128
299.9653
300.988
300.805
300.542
300.1613
300.402
300.1571
299.9959
300.97
300.641
299.9794
300.497
300.525
300.98
300.1032
300.555
300.1344
300.773
300.103
300.1781
299.9802
300.923
300.426
299.9589
300.839
299.9776
300.1146
299.9920
300.502
300.1267
300.686
300.1301
300.989
300.410
300.1215
300.240
300.759
300.247
299.9403
300.1480
299.9975
300.1271
300.1082
300.743
300.1799
300.456
300.1795
300.302
300.346
300.1028
300.119
300.646
300.637
300.158
300.1158
300.755
300.1572
300.1073
300.305
300.1999
299.9971
300.1247
300.884
300.140
300.1418
300.333
300.1610
300.584
300.1167
300.1867
300.1184
300.1787
300.1709
300.1067
300.1867
300.889
300.1405
300.1065
300.110
300.2029
300.520
300.2029
300.1890
300.1479
300.2630
300.1263
300.2390
300.1011
300.866
300.1490
300.561
300.1127
300.1492
300.877
300.1863
300.1505
300.2149
300.1639
300.831
300.2648
300.459
300.1622
300.1222
300.347
300.1508
300.468
300.1723
300.1013
300.1519
300.2201
300.1492
300.2093
300.2022
300.1275
300.2190
300.1138
300.1503
300.1213
300.246
300.2204
300.633
300.2049
300.1864
300.1369
300.2565
300.1210
300.2339
300.962
300.771
300.1335
300.436
300.775
300.1176
300.614
300.1757
300.1232
300.1949
300.1581
300.679
300.2446
300.207
300.1381
300.976
300.74
300.1414
300.312
300.1321
300.515
300.879
300.1687
300.919
300.1384
300.1398
300.631
300.1589
300.557
300.932
300.708
299.9732
300.1728
299.9985
300.1348
300.1294
300.773
300.2126
300.913
300.1751
300.614
300.501
300.1279
300.237
300.601
300.1165
300.499
300.1781
300.1369
300.1931
300.1672
300.734
300.2686
300.572
300.1705
300.1473
300.564
300.1809
300.845
300.1951
300.1148
300.1427
300.2335
300.1632
300.2003
300.2184
300.1338
300.2206
300.1137
300.1428
300.1263
300.206
300.2313
300.590
300.1887
300.1942
300.1567
300.2794
300.1528
300.2510
300.1364
300.1036
300.1803
300.889
300.1098
300.1799
300.1131
300.2373
300.1896
300.2492
300.2258
300.1277
300.3086
300.888
300.1954
300.1788
300.959
300.2197
300.1175
300.2020
300.1531
300.1658
300.2586
300.1752
300.1989
300.2306
300.1285
300.2138
300.1142
300.1493
300.1423
300.193
300.2205
300.354
300.1682
300.1692
300.1195
300.2345
300.1055
300.1929
300.1000
300.583
300.1375
300.368
300.464
300.1254
300.552
300.1803
300.1346
300.1871
300.1735
300.639
300.2545
300.184
300.1246
300.1191
300.320
300.1572
300.595
300.1480
300.1032
300.1134
300.2082
300.1220
300.1348
300.1906
300.886
300.1783
300.713
300.901
300.1078
299.9928
300.1997
300.239
300.1572
300.1732
300.1264
300.2491
300.1223
300.1974
300.1156
300.803
300.1578
300.593
300.572
300.1527
300.696
300.1958
300.1401
300.1854
300.1855
300.753
300.2701
300.367
300.1410
300.1454
300.470
300.1600
300.750
300.1396
300.1158
300.1206
300.2149
300.1317
300.1411
300.2041
300.857
300.1925
300.927
300.928
300.1203
300.205
300.2204
300.393
300.1701
300.1870
300.1387
300.2640
300.1475
300.2099
300.1464
300.973
300.1772
300.793
300.613
300.1624
300.659
300.1990
300.1528
300.1942
300.2126
300.987
300.2822
300.543
300.1421
300.1513
300.570
300.1752
300.864
300.1449
300.1257
300.1239
300.2164
300.1285
300.1381
300.2177
300.812
300.1920
300.973
300.953
300.1297
300.195
300.2146
300.297
300.1444
300.1685
300.1221
300.2477
300.1402
300.1886
300.1491
300.897
300.1712
300.740
300.564
300.1770
300.790
300.2155
300.1759
300.1965
300.2152
300.1079
300.2789
300.494
300.1323
300.1370
300.413
300.1620
300.779
300.1271
300.1258
300.1152
300.2104
300.1215
300.1214
300.2001
300.589
300.1739
300.749
300.702
300.1206
299.9978
300.2003
300.323
300.1405
300.1650
300.1030
300.2082
300.809
300.1187
300.755
299.9913
300.505
299.9401
299.8739
299.9637
299.8352
299.9273
299.8353
299.8059
299.7796
299.6172
299.7381
299.4526
299.4767
299.4114
299.2444
299.2877
299.1058
299.1018
298.9802
298.8871
298.8841
298.7060
298.6129
298.5313
298.3322
298.3048
298.715
297.9961
297.8395
297.6013
297.6658
297.3799
297.3699
297.2007
297.404
296.9666
296.6799
296.6836
296.3228
296.2027
296.479
295.7843
295.7194
295.4563
295.3615
295.1203
294.9379
294.8499
294.6016
294.4541
294.2181
294.104
293.8262
293.5287
293.4099
293.1284
292.8867
292.7601
292.4778
292.3782
292.1137
291.9704
291.6968
291.4155
291.3094
290.9565
290.8188
290.4894
290.2943
290.312
289.6877
289.6199
289.2673
289.1549
288.8582
288.6596
288.3818
288.468
287.9598
287.5475
287.3905
287.431
286.8025
286.5256
286.1629
286.676
285.7025
285.5604
285.2405
285.420
284.7255
284.4090
284.2415
283.8526
283.6620
283.2925
283.798
282.7335
282.4398
282.2240
281.9165
281.6875
281.3919
281.1947
280.8440
280.6388
280.2893
280.453
279.6714
279.3652
279.1275
278.7466
278.5717
278.1847
278.277
277.5990
277.4135
277.1253
276.8243
276.5725
276.1656
276.293
275.5835
275.3830
274.9949
274.7548
274.3888
274.729
273.8243
273.5329
273.2422
272.9572
272.7292
272.3795
272.1838
271.7640
271.6126
271.1133
270.9045
270.5432
270.2360
269.9184
269.5437
269.3499
269.62
268.7365
268.4169
268.1876
267.8300
267.6175
267.1831
267.241
266.5282
266.3206
265.9458
265.6584
265.3000
264.9672
264.7045
264.4093
264.525
263.7720
263.5085
263.1687
262.9219
262.5028
262.3288
261.8922
261.6444
261.2482
261.9
260.5903
260.3641
259.9523
259.7890
259.3370
259.1465
258.7991
258.5653
258.1971
257.9451
257.5563
257.3479
256.8564
256.6389
256.2739
255.9714
255.6007
255.2963
254.9693
254.7166
254.2970
254.972
253.7880
253.5161
253.1661
252.8723
252.5299
252.2777
251.8126
251.5757
251.2275
250.9194
250.5409
250.2309
249.9029
249.6684
249.2315
249.268
248.6936
248.4359
248.606
247.8063
247.4096
247.2118
246.7160
246.4900
246.888
245.8131
245.3983
245.1589
244.7275
244.5535
244.1316
243.8768
243.5405
243.2980
242.9430
242.6710
242.2757
242.533
241.7137
241.3067
241.181
240.6880
240.3572
239.9851
239.6917
239.3404
239.1264
238.6866
238.4688
238.1155
237.8574
237.4927
237.2356
236.8107
236.6091
236.2424
235.8464
235.5528
235.2379
234.9109
234.5315
234.2544
233.8599
233.6713
233.2436
232.9912
232.6511
232.3982
232.716
231.7675
231.4341
231.1321
230.8941
230.4251
230.1882
229.7888
229.5166
229.933
228.8155
228.3882
228.1747
227.8812
227.4696
227.2426
226.9094
226.6494
226.2684
226.53
225.5964
225.3713
225.606
224.6233
224.3717
223.9952
223.7188
223.2999
223.328
222.6090
222.3963
222.1051
221.6855
221.4599
221.1233
220.8519
220.4811
220.1937
219.8472
219.5605
219.3187
218.8489
218.5852
218.2034
217.9280
217.5467
217.2124
216.9078
216.5465
216.3422
215.9187
215.6086
215.3283
215.605
214.7769
214.4116
214.1441
213.7305
213.5120
213.2008
212.7592
212.5115
212.1209
211.8458
211.4554
211.1364
210.8121
210.4437
210.2347
209.8250
209.4996
209.2440
208.9568
208.6841
208.3137
208.319
207.6703
207.4014
207.1667
206.6971
206.3908
206.318
205.7453
205.4197
205.126
204.7210
204.2884
204.793
203.8176
203.3929
203.1012
202.7856
202.5490
202.2620
201.8947
201.6120
201.2256
200.9843
200.7384
200.2773
199.9745
199.6356
199.3467
199.286
198.6065
198.3186
197.9377
197.6827
197.4539
197.298
196.7068
196.4469
196.1591
195.8914
195.5483
195.2391
194.9543
194.5774
194.3769
194.192
193.6014
193.3268
192.9461
192.6804
192.3372
191.9561
191.6457
191.2389
191.211
190.7775
190.3509
190.249
189.7634
189.4636
189.2066
188.8764
188.5621
188.2723
187.8643
187.6523
187.3825
186.9355
186.6087
186.2735
185.9579
185.6581
185.2596
184.9423
184.6207
184.2094
184.190
183.7400
183.3376
183.414
182.7499
182.4890
182.2196
181.8958
181.5888
181.3024
180.8941
180.6933
180.4318
179.9833
179.6253
179.3246
178.9825
178.7166
178.3722
177.9949
177.6770
177.2857
177.280
176.7970
176.4254
176.707
175.7968
175.4772
175.2466
174.9634
174.6094
174.2953
173.9987
173.6072
173.4029
173.1537
172.7183
172.3379
172.454
171.6825
171.4217
171.893
170.6849
170.3735
170.388
169.6585
169.4687
169.1903
168.7817
168.4349
168.1712
167.8633
167.6417
167.3581
167.20
166.7007
166.4117
166.233
165.8175
165.5722
165.1468
164.7644
164.4774
164.1155
163.8488
163.5394
163.1635
162.8228
162.4806
162.976
161.8501
161.6185
161.2947
160.9240
160.6032
160.3356
160.529
159.8306
159.5398
159.1826
158.8903
158.5940
158.2143
158.198
157.7769
157.3921
157.24
156.6809
156.3519
156.441
155.7816
155.4371
155.350
154.7251
154.3921
153.9971
153.8023
153.5437
153.2019
152.8319
152.4968
152.2223
151.9346
151.7207
151.4317
151.906
150.7860
150.4582
150.1282
149.8356
149.6203
149.3510
148.9360
148.5620
148.2600
147.9148
147.6282
147.3538
147.109
146.6163
146.2974
145.9488
145.5674
145.3260
145.943
144.8070
144.4237
144.764
143.7976
143.4949
143.2565
143.232
142.7334
142.3918
142.954
141.7744
141.4524
141.1533
140.9386
140.6841
140.2871
139.9189
139.5814
139.2832
138.9607
138.7173
138.4027
138.469
137.6661
137.3342
136.9942
136.6244
136.3987
136.1710
135.8882
135.5089
135.1740
134.8648
134.6053
134.3301
134.1224
133.8455
133.5494
133.2064
132.9120
132.6024
132.2755
132.46
131.7902
131.5333
131.1486
130.7696
130.4007
130.1107
129.7686
129.4976
129.2369
128.8917
128.5174
128.1719
127.8243
127.4833
127.1171
126.8864
126.6624
126.3897
126.148
125.6660
125.3225
125.560
124.7617
124.5281
124.3120
124.227
123.7261
123.3830
123.735
122.7483
122.4266
122.1267
121.9296
121.6740
121.3532
120.9552
120.5886
120.2435
119.9347
119.6040
119.3395
119.739
118.7302
118.3623
117.9829
117.6494
117.2893
116.9579
116.6300
116.4450
116.1904
115.9115
115.5359
115.2059
114.8567
114.5789
114.2985
114.530
113.8423
113.5886
113.3041
112.9884
112.6630
112.3433
112.297
111.7303
111.4367
111.2531
111.5
110.7301
110.3421
109.9727
109.6002
109.2777
108.9681
108.6568
108.4048
108.1447
107.8200
107.4702
107.948
106.7598
106.3935
106.597
105.7277
105.4205
105.2265
104.9686
104.6922
104.3316
103.9794
103.6502
103.3222
103.602
102.7803
102.5442
102.3342
102.903
101.7937
101.4841
101.1477
100.8444
100.4972
100.1995
99.8977
99.6178
99.4341
99.1984
98.9244
98.5823
98.2036
97.8501
97.4757
97.1682
96.8514
96.5429
96.2799
96.221
95.7153
95.3673
95.127
94.6417
94.3029
93.9301
93.5812
93.2646
92.9524
92.7303
92.5259
92.2557
91.9740
91.6283
91.2789
90.9422
90.5819
90.2933
90.227
89.7578
89.5291
89.3193
89.806
88.7984
88.5063
88.1828
87.8590
87.5547
87.2160
86.9097
86.6279
86.3327
86.1135
85.9132
85.6503
85.3741
85.432
84.6643
84.3065
83.9333
83.5618
83.2535
82.9419
82.6474
82.3840
82.1361
81.8685
81.5503
81.2055
80.8546
80.4877
80.1265
79.7727
79.3975
79.614
78.7480
78.4426
78.2075
78.3
77.7527
77.4768
77.1845
76.8413
76.4959
76.1665
75.8267
75.4846
75.2080
74.9406
74.6822
74.4638
74.2573
74.469
73.8071
73.5218
73.2249
72.9132
72.5978
72.2704
71.9502
71.6017
71.2799
71.48
70.7340
70.4742
70.2628
70.695
69.8388
69.5633
69.2776
68.9512
68.5877
68.2296
67.8743
67.4962
67.1140
66.7788
66.4737
66.1814
65.9044
65.6620
65.4206
65.1857
64.9168
64.6190
64.3017
63.9871
63.6557
63.3257
63.26
62.6906
62.3641
62.617
61.7958
61.5669
61.3518
61.1648
61.233
60.8933
60.7448
60.5641
60.3670
60.1553
59.9136
59.6696
59.4471
59.2200
58.9944
58.7677
58.5799
58.4354
58.3097
58.2031
58.1249
58.713
58.172
57.9563
57.8735
57.7644
57.6399
57.5102
57.3711
57.2305
57.754
56.9326
56.7805
56.6176
56.4763
56.3823
56.3050
56.2311
56.1883
56.1797
56.1786
56.1650
56.1117
56.374
55.9468
55.8263
55.6895
55.5571
55.4298
55.2924
55.1523
55.145
54.9117
54.8348
54.7739
54.7310
54.7056
54.7057
54.6957
54.6898
54.6581
54.5861
54.4969
54.4043
54.3004
54.1929
54.851
53.9718
53.8701
53.7559
53.6510
53.5678
53.5200
53.5043
53.4945
53.5133
53.5662
53.6231
53.6732
53.6871
53.6686
53.6495
53.6142
53.5549
53.4969
53.4429
53.3874
53.3265
53.2589
53.2180
53.2151
53.2345
53.2758
53.3312
53.4110
53.4960
53.5711
53.6467
53.6843
53.6949
53.6785
53.6700
53.6514
53.6207
53.5862
53.5475
53.5200
53.4776
53.4521
53.4630
53.4973
53.5358
53.5822
53.6667
53.7628
53.8499
53.9026
53.9235
53.9257
53.8997
53.8409
53.7687
53.7158
53.6594
53.5987
53.5274
53.4711
53.4436
53.4441
53.4600
53.4860
53.5352
53.6025
53.6626
53.7070
53.7220
53.7169
53.6896
53.6521
53.6033
53.5546
53.5029
53.4465
53.3974
53.3355
53.2825
53.2604
53.2782
53.3087
53.3451
53.4143
53.5129
53.6099
53.6790
53.7164
53.7295
53.7319
53.7133
53.6829
53.6585
53.6425
53.6168
53.5903
53.5716
53.5879
53.6314
53.6877
53.7602
53.8524
53.9607
54.668
54.1784
54.2619
54.3099
54.3344
54.3448
54.3477
54.3386
54.3252
54.3170
54.3025
54.2739
54.2558
54.2667
54.3085
54.3584
54.4147
54.4962
54.6056
54.7047
54.7897
54.8248
54.8441
54.8340
54.8052
54.7615
54.7258
54.6853
54.6351
54.5728
54.5275
54.5142
54.5219
54.5420
54.5764
54.6325
54.6937
54.7474
54.7948
54.8092
54.7957
54.7633
54.7259
54.6879
54.6391
54.5947
54.5488
54.5014
54.4397
54.4017
54.4001
54.4210
54.4652
54.5158
54.6071
54.7186
54.8104
54.8667
54.8973
54.9130
54.9063
54.8832
54.8560
54.8379
54.8156
54.7869
54.7549
54.7543
54.7950
54.8402
54.9027
54.9787
55.834
55.1842
55.2878
55.3665
55.4161
55.4325
55.4522
55.4615
55.4640
55.4540
55.4449
55.4308
55.3958
55.3827
55.4040
55.4498
55.5068
55.5676
55.6591
55.7668
55.8586
55.9195
55.9471
55.9568
55.9318
55.8848
55.8364
55.7978
55.7412
55.6805
55.6175
55.5941
55.5872
55.6010
55.6353
55.6762
55.7432
55.8075
55.8666
55.8922
55.8896
55.8618
55.8270
55.7804
55.7277
55.6717
55.6267
55.5735
55.4971
55.4475
55.4337
55.4476
55.4817
55.5266
55.6181
55.7260
55.8139
55.8622
55.8905
55.9062
55.9058
55.8804
55.8655
55.8482
55.8305
55.7987
55.7728
55.7836
55.8274
55.8771
55.9514
56.401
56.1467
56.2444
56.3410
56.4106
56.4381
56.4529
56.4596
56.4600
56.4564
56.4385
56.4266
56.4029
56.3757
56.3781
56.4109
56.4624
56.5241
56.6132
56.7176
56.8264
56.9005
56.9379
56.9568
56.9520
56.9079
56.8542
56.8113
56.7588
56.6909
56.6206
56.5858
56.5812
56.5961
56.6181
56.6578
56.7143
56.7719
56.8278
56.8521
56.8451
56.8204
56.7826
56.7383
56.6949
56.6418
56.5956
56.5348
56.4589
56.4140
56.4100
56.4273
56.4578
56.5158
56.6116
56.7152
56.7978
56.8387
56.8584
56.8638
56.8461
56.8061
56.7741
56.7511
56.7219
56.6783
56.6709
56.6953
56.7377
56.7880
56.8641
56.9733
57.782
57.1785
57.2606
57.3060
57.3160
57.3319
57.3321
57.3238
57.3034
57.2849
57.2607
57.2204
57.2044
57.2231
57.2624
57.3042
57.3671
57.4644
57.5655
57.6392
57.6765
57.6872
57.6822
57.6451
57.5889
57.5394
57.4801
57.4150
57.3434
57.3039
57.3044
57.3113
57.3278
57.3723
57.4387
57.4959
57.5512
57.5764
57.5581
57.5296
57.4916
57.4362
57.3755
57.3096
57.2505
57.1830
57.1051
57.527
57.492
57.580
57.839
57.1415
57.2418
57.3401
57.4139
57.4562
57.4789
57.4878
57.4613
57.4284
57.4065
57.3829
57.3464
57.2955
57.2918
57.3169
57.3568
57.4198
57.5010
57.6073
57.7036
57.7958
57.8646
57.8951
57.8989
57.9027
57.9033
57.8856
57.8621
57.8414
57.8021
57.7732
57.7675
57.8066
57.8499
57.9027
57.9890
58.1001
58.1977
58.2563
58.2857
58.2887
58.2633
58.2072
58.1514
58.980
58.323
57.9518
57.8934
57.8678
57.8636
57.8731
57.9025
57.9608
58.216
58.793
58.1184
58.1177
58.809
58.391
57.9876
57.9301
57.8656
57.8146
57.7569
57.6874
57.6383
57.6267
57.6397
57.6631
57.7109
57.8048
57.9069
57.9743
58.67
58.224
58.179
57.9844
57.9414
57.9135
57.8815
57.8433
57.8009
57.7909
57.8168
57.8567
57.9229
58.106
58.1167
58.2232
58.3198
58.3878
58.4083
58.4209
58.4185
58.4167
58.3950
58.3691
58.3571
58.3105
58.2824
58.2829
58.3209
58.3579
58.4122
58.5097
58.6180
58.7138
58.7598
58.7829
58.7831
58.7451
58.6876
58.6423
58.5835
58.5186
58.4397
58.3957
58.3829
58.3854
58.3969
58.4283
58.4852
58.5416
58.5846
58.6046
58.5893
58.5508
58.5118
58.4542
58.3929
58.3264
58.2699
58.1931
58.1232
58.805
58.841
58.1017
58.1300
58.2034
58.3045
58.4063
58.4605
58.4949
58.5059
58.4855
58.4393
58.4011
58.3655
58.3249
58.2707
58.2364
58.2482
58.2839
58.3270
58.3966
58.4918
58.5916
58.6883
58.7664
58.8047
58.8156
58.8207
58.8140
58.7890
58.7669
58.7440
58.7014
58.6570
58.6453
58.6616
58.7016
58.7419
58.8225
58.9237
59.191
59.736
59.909
59.920
59.627
58.9967
58.9342
58.8763
58.8062
58.7218
58.6592
58.6362
58.6384
58.6456
58.6736
58.7185
58.7752
58.8282
58.8607
58.8574
58.8230
58.7851
58.7358
58.6794
58.6093
58.5437
58.4729
58.3963
58.3486
58.3374
58.3409
58.3560
58.4100
58.4985
58.5938
58.6456
58.6717
58.6791
58.6655
58.6275
58.5908
58.5639
58.5298
58.4900
58.4537
58.4681
58.4996
58.5480
58.6099
58.7083
58.8090
58.9069
58.9840
59.241
59.269
59.264
59.199
59.46
58.9841
58.9657
58.9291
58.8883
58.8821
58.9064
58.9469
58.9881
59.703
59.1770
59.2826
59.3426
59.3750
59.3807
59.3528
59.2996
59.2462
59.1941
59.1405
59.693
59.129
58.9889
58.9875
58.9949
59.145
59.644
59.1118
59.1538
59.1766
59.1598
59.1225
59.787
59.222
58.9599
58.8973
58.8452
58.7725
58.7004
58.6602
58.6628
58.6766
58.6995
58.7630
58.8598
58.9538
59.19
59.279
59.382
59.159
58.9681
58.9287
58.8997
58.8590
58.8016
58.7732
58.7779
58.8086
58.8543
58.9124
59.116
59.1117
59.2097
59.2841
59.3186
59.3264
59.3262
59.3152
59.2942
59.2660
59.2442
59.2013
59.1666
59.1668
59.1934
59.2342
59.2782
59.3668
59.4677
59.5487
59.5878
59.6057
59.5959
59.5494
59.4802
59.4228
59.3587
59.2855
59.2055
59.1604
59.1518
59.1538
59.1711
59.2026
59.2630
59.3141
59.3542
59.3691
59.3427
59.3068
59.2563
59.1915
59.1222
59.529
58.9956
58.9128
58.8376
58.8033
58.8083
58.8192
58.8476
58.9306
59.237
59.1007
59.1428
59.1598
59.1611
59.1327
59.930
59.650
59.248
58.9937
58.9467
58.9430
58.9677
59.41
59.549
59.1344
59.2249
59.3175
59.4033
59.4573
59.4666
59.4627
59.4648
59.4471
59.4136
59.3844
59.3554
59.3130
59.2895
59.3018
59.3421
59.3834
59.4497
59.5471
59.6514
59.7167
59.7458
59.7518
59.7292
59.6653
59.5983
59.5355
59.4632
59.3785
59.3098
59.2856
59.2777
59.2797
59.2976
59.3472
59.4024
59.4453
59.4712
59.4628
59.4210
59.3799
59.3218
59.2569
59.1866
59.1355
59.625
58.9887
58.9439
58.9357
58.9510
58.9725
59.419
59.1311
59.2147
59.2587
59.2695
59.2700
59.2457
59.1951
59.1533
59.1197
59.832
59.312
59.91
59.286
59.711
59.1259
59.2078
59.3091
59.4091
59.4988
59.5675
59.5907
59.5927
59.5855
59.5698
59.5462
59.5209
59.5000
59.4578
59.4213
59.4254
59.4580
59.5013
59.5490
59.6425
59.7382
59.8171
59.8594
59.8714
59.8624
59.8209
59.7642
59.7153
59.6665
59.6031
59.5280
59.4987
59.4940
59.4958
59.5163
59.5645
59.6170
59.6577
59.6931
59.6931
59.6592
59.6087
59.5546
59.4890
59.4190
59.3550
59.2954
59.2174
59.1623
59.1488
59.1577
59.1762
59.2250
59.3180
59.4166
59.4793
59.5099
59.5238
59.5140
59.4718
59.4217
59.3906
59.3474
59.2962
59.2620
59.2703
59.2968
59.3371
59.3990
59.4920
59.5837
59.6769
59.7452
59.7812
59.7876
59.7882
59.7753
59.7569
59.7298
59.7083
59.6744
59.6346
59.6319
59.6603
59.7007
59.7426
59.8271
59.9258
60.114
60.518
60.629
60.493
59.9906
59.9233
59.8613
59.7997
59.7331
59.6497
59.6042
59.5878
59.5847
59.5923
59.6288
59.6871
59.7370
59.7774
59.7823
59.7506
59.7053
59.6470
59.5935
59.5240
59.4580
59.3970
59.3155
59.2532
59.2295
59.2363
59.2480
59.2922
59.3741
59.4641
59.5229
59.5480
59.5514
59.5301
59.4870
59.4422
59.4133
59.3820
59.3434
59.3104
59.3197
59.3536
59.3944
59.4558
59.5462
59.6370
59.7330
59.8066
59.8353
59.8368
59.8274
59.8098
59.7824
59.7495
59.7231
59.6868
59.6462
59.6363
59.6649
59.7014
59.7407
59.8238
59.9274
60.92
60.540
60.708
60.600
60.277
59.9581
59.8978
59.8328
59.7685
59.6838
59.6390
59.6292
59.6234
59.6377
59.6629
59.7160
59.7736
59.8030
59.8060
59.7713
59.7203
59.6641
59.6012
59.5341
59.4741
59.4148
59.3297
59.2729
59.2450
59.2473
59.2619
59.3030
59.3892
59.4793
59.5532
59.5793
59.5915
59.5813
59.5325
59.4917
59.4565
59.4205
59.3665
59.3326
59.3378
59.3676
59.4120
59.4749
59.5672
59.6634
59.7553
59.8399
59.8881
59.8973
59.8950
59.8919
59.8685
59.8466
59.8225
59.7871
59.7483
59.7379
59.7627
59.7987
59.8453
59.9268
60.258
60.1077
60.1456
60.1538
60.1396
60.970
60.261
59.9674
59.9091
59.8418
59.7667
59.7257
59.7185
59.7195
59.7387
59.7700
59.8281
59.8813
59.9195
59.9290
59.8985
59.8553
59.8050
59.7419
59.6758
59.6104
59.5462
59.4608
59.3909
59.3620
59.3634
59.3773
59.4185
59.5075
59.6018
59.6659
59.6980
59.7054
59.6963
59.6578
59.6213
59.5893
59.5551
59.5063
59.4668
59.4704
59.4947
59.5329
59.5951
59.6859
59.7762
59.8699
59.9487
59.9791
59.9826
59.9787
59.9703
59.9526
59.9235
59.9006
59.8645
59.8234
59.8167
59.8447
59.8820
59.9187
59.9963
60.947
60.1756
60.2143
60.2270
60.2169
60.1650
60.943
60.301
59.9620
59.8918
59.8055
59.7613
59.7428
59.7420
59.7557
59.7908
59.8422
59.8893
59.9281
59.9251
59.8892
59.8449
59.7806
59.7203
59.6639
59.6043
59.5418
59.4614
59.3965
59.3800
59.3869
59.3921
59.4355
59.5258
59.6178
59.6758
59.6971
59.7035
59.6888
59.6482
59.5960
59.5594
59.5215
59.4667
59.4309
59.4407
59.4672
59.5162
59.5733
59.6603
59.7560
59.8507
59.9286
59.9594
59.9653
59.9649
59.9538
59.9349
59.9120
59.8940
59.8480
59.8114
59.8119
59.8368
59.8606
59.9009
59.9876
60.896
60.1701
60.2079
60.2272
60.2220
60.1819
60.1220
60.680
60.139
59.9385
59.8633
59.8244
59.8080
59.8078
59.8173
59.8590
59.9078
59.9523
59.9787
59.9764
59.9411
59.8945
59.8357
59.7704
59.6969
59.6320
59.5613
59.4804
59.4236
59.4079
59.4129
59.4318
59.4823
59.5769
59.6679
59.7246
59.7435
59.7512
59.7352
59.6921
59.6523
59.6161
59.5817
59.5351
59.5027
59.5152
59.5399
59.5894
59.6478
59.7397
59.8291
59.9139
59.9870
60.177
60.170
60.114
60.35
59.9826
59.9579
59.9365
59.8966
59.8584
59.8660
59.8932
59.9281
59.9810
60.641
60.1617
60.2377
60.2722
60.2784
60.2670
60.2104
60.1466
60.849
60.193
59.9393
59.8647
59.8311
59.8233
59.8179
59.8328
59.8731
59.9248
59.9775
60.39
60.16
59.9602
59.9134
59.8536
59.7999
59.7319
59.6713
59.6063
59.5337
59.4776
59.4675
59.4758
59.4865
59.5394
59.6339
59.7238
59.7722
59.7859
59.7883
59.7595
59.7103
59.6708
59.6416
59.6015
59.5511
59.5269
59.5491
59.5889
59.6374
59.7092
59.8065
59.9115
60.14
60.584
60.773
60.790
60.738
60.554
60.252
59.9909
59.9637
59.9075
59.8728
59.8671
59.9020
59.9356
59.9856
60.833
60.1783
60.2422
60.2754
60.2927
60.2757
60.2175
60.1502
60.934
60.318
59.9488
59.8754
59.8439
59.8233
59.8296
59.8438
59.8826
59.9307
59.9758
60.40
59.9878
59.9360
59.8872
59.8296
59.7597
59.6893
59.6280
59.5534
59.4744
59.4230
59.4160
59.4246
59.4491
59.5149
59.6056
59.6923
59.7310
59.7506
59.7550
59.7324
59.6862
59.6515
59.6194
59.5790
59.5205
59.4930
59.5079
59.5353
59.5810
59.6515
59.7477
59.8503
59.9411
60.101
60.393
60.453
60.475
60.362
60.95
59.9853
59.9621
59.9210
59.8966
59.9123
59.9413
59.9735
60.363
60.1349
60.2314
60.2933
60.3199
60.3229
60.2973
60.2265
60.1708
60.1102
60.441
59.9618
59.9088
59.8864
59.8853
59.8955
59.9212
59.9755
60.296
60.817
60.1022
60.846
60.464
59.9979
59.9457
59.8751
59.8064
59.7403
59.6534
59.5764
59.5378
59.5362
59.5386
59.5609
59.6397
59.7346
59.8079
59.8468
59.8673
59.8720
59.8463
59.8010
59.7653
59.7253
59.6727
59.6222
59.6156
59.6362
59.6737
59.7245
59.8015
59.8961
59.9908
60.709
60.1169
60.1306
60.1342
60.1294
60.1182
60.839
60.616
60.228
59.9714
59.9536
59.9675
59.9916
60.246
60.1042
60.2085
60.3004
60.3564
60.3733
60.3721
60.3434
60.2768
60.2178
60.1511
60.827
59.9938
59.9347
59.9083
59.9041
59.9067
59.9303
59.9824
60.218
60.623
60.706
60.473
59.9994
59.9521
59.8934
59.8246
59.7588
59.6946
59.6108
59.5396
59.5116
59.5142
59.5210
59.5581
59.6506
59.7463
59.8123
59.8412
59.8470
59.8355
59.7912
59.7433
59.7074
59.6659
59.6069
59.5577
59.5545
59.5853
59.6227
59.6802
59.7679
59.8643
59.9588
60.333
60.761
60.877
60.946
60.875
60.647
60.257
59.9961
59.9524
59.9055
59.8960
59.9195
59.9432
59.9821
60.582
60.1536
60.2408
60.2785
60.2894
60.2824
60.2407
60.1721
60.1250
60.647
59.9915
59.9101
59.8671
59.8570
59.8527
59.8613
59.8948
59.9408
59.9878
60.284
60.311
59.9985
59.9552
59.8988
59.8354
59.7626
59.6978
59.6306
59.5511
59.4940
59.4712
59.4700
59.4851
59.5358
59.6292
59.7209
59.7881
59.8077
59.8241
59.8136
59.7687
59.7352
59.7018
59.6615
59.6043
59.5647
59.5738
59.5951
59.6377
59.6975
59.7939
59.8890
59.9900
60.616
60.900
60.969
60.1011
60.865
60.673
60.310
60.73
59.9618
59.9253
59.9227
59.9524
59.9931
60.421
60.1385
60.2529
60.3343
60.3702
60.3812
60.3687
60.3167
60.2474
60.1830
60.1128
60.271
59.9474
59.9026
59.8875
59.8868
59.9011
59.9441
60.35
60.494
60.840
60.794
60.453
60.9
59.9487
59.8818
59.8116
59.7532
59.6804
59.5988
59.5435
59.5214
59.5243
59.5357
59.5921
59.6806
59.7671
59.8182
59.8353
59.8406
59.8185
59.7664
59.7271
59.6904
59.6534
59.5972
59.5722
59.5855
59.6230
59.6709
59.7414
59.8387
59.9425
60.340
60.942
60.1163
60.1192
60.1193
60.988
60.680
60.321
59.9958
59.9446
59.9121
59.9199
59.9455
59.9724
60.272
60.1215
60.2243
60.2886
60.3196
60.3342
60.3182
60.2595
60.1989
60.1426
60.779
59.9974
59.9291
59.9017
59.8906
59.8867
59.9046
59.9446
59.9912
60.298
60.483
60.323
59.9916
59.9410
59.8794
59.8131
59.7373
59.6808
59.6074
59.5304
59.4910
59.4904
59.4963
59.5220
59.6036
59.7051
59.7914
59.8340
59.8414
59.8404
59.8066
59.7593
59.7223
59.6794
59.6331
59.5649
59.5498
59.5692
59.6029
59.6527
59.7259
59.8265
59.9218
60.103
60.611
60.839
60.834
60.821
60.672
60.409
60.90
59.9790
59.9322
59.9054
59.9257
59.9595
59.9925
60.585
60.1591
60.2540
60.3089
60.3301
60.3321
60.3037
60.2462
60.1829
60.1266
60.558
59.9653
59.9054
59.8907
59.8840
59.8916
59.9190
59.9721
60.322
60.804
60.1008
60.898
60.576
60.86
59.9471
59.8780
59.8087
59.7444
59.6593
59.5777
59.5421
59.5334
59.5430
59.5710
59.6544
59.7540
59.8287
59.8544
59.8692
59.8697
59.8397
59.8009
59.7756
59.7394
59.6906
59.6456
59.6446
59.6697
59.7053
59.7612
59.8461
59.9446
60.390
60.1142
60.1496
60.1627
60.1597
60.1498
60.1226
60.869
60.641
60.290
59.9821
59.9697
59.9944
60.293
60.665
60.1459
60.2507
60.3420
60.3889
60.4104
60.4068
60.3635
60.2983
60.2390
60.1766
60.986
60.179
59.9674
59.9480
59.9411
59.9533
59.9875
60.456
60.949
60.1318
60.1379
60.1050
60.656
60.98
59.9488
59.8839
59.8193
59.7489
59.6666
59.6010
59.5812
59.5842
59.5969
59.6482
59.7310
59.8214
59.8761
59.8944
59.8945
59.8734
59.8230
59.7781
59.7468
59.7010
59.6488
59.6052
59.6172
59.6462
59.6994
59.7679
59.8626
59.9583
60.505
60.1201
60.1505
60.1505
60.1504
60.1353
60.1086
60.785
60.540
60.74
59.9731
59.9713
59.9999
60.314
60.753
60.1635
60.2587
60.3241
60.3490
60.3583
60.3373
60.2864
60.2210
60.1544
60.936
60.205
59.9418
59.9126
59.9012
59.8997
59.9181
59.9592
60.115
60.539
60.746
60.606
60.123
59.9568
59.8925
59.8274
59.7526
59.6877
59.6166
59.5383
59.4829
59.4729
59.4804
59.4961
59.5626
59.6575
59.7449
59.7956
59.8179
59.8202
59.7976
59.7476
59.7135
59.6741
59.6381
59.5796
59.5543
59.5710
59.6035
59.6536
59.7288
59.8252
59.9178
60.65
60.631
60.926
60.1055
60.1007
60.872
60.624
60.352
60.125
59.9679
59.9440
59.9621
59.9926
60.296
60.917
60.1868
60.2834
60.3460
60.3770
60.3800
60.3557
60.2904
60.2306
60.1638
60.985
60.150
59.9434
59.9113
59.9135
59.9180
59.9507
59.9951
60.467
60.987
60.1235
60.1068
60.678
60.248
59.9683
59.9123
59.8433
59.7851
59.7063
59.6354
59.5912
59.5836
59.5954
59.6153
59.6944
59.7983
59.8689
59.9082
59.9177
59.9116
59.8800
59.8273
59.7970
59.7672
59.7177
59.6621
59.6558
59.6847
59.7213
59.7784
59.8528
59.9462
60.399
60.1181
60.1649
60.1801
60.1800
60.1777
60.1550
60.1250
60.936
60.575
60.148
59.9936
60.96
60.419
60.740
60.1463
60.2441
60.3383
60.3882
60.4034
60.4027
60.3692
60.3028
60.2476
60.1991
60.1342
60.497
59.9986
59.9835
59.9744
59.9754
60.0
60.496
60.877
60.1256
60.1326
60.996
60.508
59.9963
59.9335
59.8682
59.8052
59.7479
59.6645
59.6024
59.5788
59.5866
59.5923
59.6372
59.7177
59.8141
59.8770
59.9021
59.9116
59.9069
59.8609
59.8145
59.7728
59.7371
59.6863
59.6399
59.6405
59.6677
59.6988
59.7593
59.8483
59.9418
60.379
60.1180
60.1562
60.1631
60.1624
60.1580
60.1288
60.1058
60.929
60.469
60.61
59.9943
60.204
60.487
60.907
60.1763
60.2742
60.3488
60.3803
60.3876
60.3741
60.3226
60.2462
60.1877
60.1288
60.480
59.9674
59.9300
59.9219
59.9249
59.9358
59.9791
60.339
60.870
60.1234
60.1252
60.926
60.467
59.9891
59.9189
59.8494
59.7844
59.7159
59.6334
59.5778
59.5567
59.5588
59.5708
59.6243
59.7047
59.7977
59.8528
59.8656
59.8706
59.8535
59.8026
59.7623
59.7271
59.6952
59.6509
59.6281
59.6449
59.6740
59.7319
59.8037
59.9034
60.29
60.957
60.1551
60.1760
60.1766
60.1691
60.1503
60.1286
60.998
60.827
60.395
60.117
60.248
60.552
60.985
60.1548
60.2530
60.3622
60.4276
60.4637
60.4708
60.4553
60.3969
60.3350
60.2773
60.2154
60.1392
60.704
60.456
60.389
60.348
60.504
60.959
60.1393
60.1765
60.2038
60.1842
60.1355
60.833
60.241
59.9568
59.8884
59.8316
59.7589
59.6920
59.6485
59.6468
59.6589
59.6764
59.7410
59.8354
59.9103
59.9521
59.9572
59.9536
59.9175
59.8645
59.8227
59.7797
59.7276
59.6792
59.6711
59.6917
59.7271
59.7770
59.8566
59.9545
60.484
60.1258
60.1699
60.1851
60.1867
60.1778
60.1601
60.1331
60.1046
60.687
60.240
59.9993
60.168
60.433
60.758
60.1360
60.2282
60.3255
60.3806
60.4009
60.4059
60.3677
60.3018
60.2433
60.1883
60.1215
60.322
59.9780
59.9623
59.9539
59.9578
59.9833
60.357
60.866
60.1279
60.1407
60.1169
60.716
60.121
59.9473
59.8784
59.8095
59.7411
59.6581
59.5872
59.5556
59.5533
59.5605
59.5931
59.6796
59.7774
59.8456
59.8747
59.8910
59.8833
59.8440
59.8002
59.7661
59.7259
59.6755
59.6300
59.6339
59.6563
59.6921
59.7542
59.8378
59.9321
60.215
60.949
60.1320
60.1433
60.1386
60.1267
60.1018
60.693
60.474
60.70
59.9667
59.9657
59.9909
60.252
60.639
60.1482
60.2502
60.3341
60.3740
60.3895
60.3824
60.3264
60.2493
60.1897
60.1269
60.542
59.9742
59.9286
59.9267
59.9298
59.9420
59.9730
60.296
60.819
60.1231
60.1281
60.919
60.565
60.66
59.9448
59.8798
59.8166
59.7486
59.6692
59.6134
59.5937
59.6006
59.6130
59.6661
59.7517
59.8403
59.8966
59.9116
59.9143
59.8960
59.8447
59.8061
59.7736
59.7318
59.6847
59.6600
59.6755
59.7089
59.7573
59.8233
59.9183
60.116
60.1026
60.1719
60.1960
60.2045
60.1983
60.1783
60.1527
60.1212
60.926
60.394
59.9975
59.9925
60.166
60.474
60.977
60.1920
60.2961
60.3679
60.4035
60.4161
60.4081
60.3486
60.2850
60.2250
60.1618
60.859
60.155
59.9828
59.9712
59.9685
59.9833
60.289
60.825
60.1273
60.1551
60.1395
60.963
60.483
59.9902
59.9253
59.8545
59.7960
59.7160
59.6347
59.5820
59.5747
59.5755
59.5932
59.6626
59.7636
59.8516
59.8925
59.9173
59.9192
59.8912
59.8448
59.8059
59.7636
59.7162
59.6521
59.6234
59.6412
59.6749
59.7198
59.7901
59.8848
59.9811
60.771
60.1348
60.1532
60.1636
60.1615
60.1409
60.1139
60.906
60.610
60.170
59.9900
60.59
60.365
60.685
60.1294
60.2276
60.3220
60.3803
60.4046
60.4043
60.3796
60.3140
60.2487
60.1871
60.1118
60.274
59.9614
59.9311
59.9176
59.9252
59.9481
59.9940
60.521
60.936
60.1080
60.885
60.471
59.9988
59.9412
59.8689
59.7986
59.7428
59.6508
59.5727
59.5344
59.5260
59.5321
59.5539
59.6291
59.7262
59.7963
59.8321
59.8423
59.8476
59.8134
59.7714
59.7396
59.6981
59.6500
59.6021
59.6019
59.6337
59.6641
59.7248
59.8153
59.9065
60.57
60.798
60.1141
60.1186
60.1200
60.1074
60.934
60.618
60.377
59.9990
59.9550
59.9462
59.9687
60.45
60.418
60.1210
60.2235
60.3210
60.3700
60.3899
60.3868
60.3484
60.2891
60.2283
60.1671
60.975
60.126
59.9619
59.9495
59.9532
59.9622
59.9931
60.495
60.968
60.1330
60.1388
60.1005
60.606
60.164
59.9536
59.8862
59.8289
59.7603
59.6757
59.6087
59.5844
59.5852
59.5999
59.6463
59.7375
59.8316
59.8934
59.9226
59.9323
59.9249
59.8860
59.8488
59.8139
59.7770
59.7211
59.6789
59.6772
59.6967
59.7377
59.7966
59.8848
59.9826
60.687
60.1407
60.1767
60.1834
60.1870
60.1795
60.1580
60.1250
60.1022
60.566
60.143
60.102
60.333
60.629
60.1000
60.1810
60.2795
60.3518
60.3789
60.3941
60.3856
60.3284
60.2613
60.1978
60.1312
60.571
59.9856
59.9489
59.9376
59.9413
59.9615
60.53
60.619
60.1167
60.1527
60.1433
60.1060
60.580
60.16
59.9370
59.8629
59.7934
59.7067
59.6238
59.5637
59.5462
59.5540
59.5694
59.6316
59.7275
59.8204
59.8688
59.8968
59.9041
59.8863
59.8336
59.7957
59.7618
59.7136
59.6474
59.6204
59.6315
59.6576
59.7099
59.7774
59.8722
59.9682
60.596
60.1242
60.1429
60.1511
60.1483
60.1378
60.1124
60.832
60.616
60.131
59.9789
59.9868
60.157
60.501
60.1163
60.2119
60.3168
60.3878
60.4134
60.4176
60.3959
60.3356
60.2697
60.2012
60.1277
60.351
59.9691
59.9366
59.9232
59.9211
59.9435
59.9926
60.467
60.850
60.1107
60.991
60.558
60.103
59.9486
59.8901
59.8168
59.7588
59.6825
59.6031
59.5588
59.5533
59.5618
59.5776
59.6481
59.7398
59.8175
59.8562
59.8768
59.8796
59.8530
59.8086
59.7732
59.7391
59.6920
59.6414
59.6277
59.6498
59.6846
59.7361
59.8267
59.9206
60.187
60.998
60.1435
60.1541
60.1648
60.1634
60.1434
60.1169
60.853
60.449
59.9939
59.9716
59.9873
60.240
60.575
60.1334
60.2341
60.3360
60.3898
60.4119
60.4175
60.3903
60.3315
60.2775
60.2164
60.1459
60.577
60.55
59.9906
59.9882
60.13
60.356
60.884
60.1385
60.1791
60.1898
60.1552
60.1080
60.586
59.9935
59.9257
59.8607
59.8053
59.7193
59.6488
59.6163
59.6172
59.6267
59.6745
59.7591
59.8566
59.9206
59.9496
59.9559
59.9532
59.9152
59.8704
59.8370
59.7965
59.7351
59.6849
59.6789
59.7039
59.7324
59.7858
59.8721
59.9695
60.627
60.1332
60.1701
60.1731
60.1741
60.1589
60.1349
60.993
60.753
60.293
59.9864
59.9810
60.38
60.361
60.691
60.1579
60.2638
60.3500
60.3914
60.4051
60.4009
60.3500
60.2793
60.2191
60.1450
60.665
59.9785
59.9424
59.9245
59.9254
59.9387
59.9844
60.426
60.917
60.1289
60.1329
60.1013
60.569
59.9983
59.9284
59.8562
59.7906
59.7183
59.6318
59.5710
59.5570
59.5591
59.5679
59.6263
59.7187
59.8064
59.8632
59.8884
59.8950
59.8757
59.8343
59.7960
59.7633
59.7151
59.6524
59.6233
59.6356
59.6669
59.7120
59.7783
59.8763
59.9671
60.540
60.1121
60.1371
60.1415
60.1425
60.1351
60.1120
60.815
60.540
60.17
59.9668
59.9685
59.9982
60.269
60.843
60.1812
60.2855
60.3568
60.3943
60.4141
60.3982
60.3412
60.2770
60.2145
60.1537
60.681
59.9974
59.9704
59.9643
59.9598
59.9761
60.198
60.720
60.1189
60.1432
60.1266
60.908
60.442
59.9861
59.9192
59.8536
59.8001
59.7243
59.6548
59.6141
59.6173
59.6287
59.6498
59.7234
59.8139
59.8972
59.9387
59.9585
59.9567
59.9244
59.8804
59.8472
59.8119
59.7689
59.7227
59.7156
59.7343
59.7685
59.8223
59.8997
59.9939
60.888
60.1730
60.2185
60.2333
60.2337
60.2269
60.2071
60.1821
60.1628
60.1339
60.792
60.518
60.623
60.922
60.1173
60.1850
60.2855
60.3779
60.4253
60.4384
60.4426
60.4065
60.3381
60.2744
60.2145
60.1442
60.598
60.71
59.9899
59.9948
60.67
60.328
60.891
60.1356
60.1767
60.1872
60.1587
60.1164
60.607
59.9955
59.9160
59.8529
59.7844
59.6986
59.6349
59.6011
59.5950
59.6065
59.6486
59.7363
59.8303
59.8937
59.9227
59.9349
59.9253
59.8880
59.8418
59.8086
59.7721
59.7167
59.6658
59.6675
59.6901
59.7247
59.7840
59.8748
59.9682
60.549
60.1256
60.1618
60.1657
60.1663
60.1511
60.1257
60.1019
60.814
60.430
60.92
60.64
60.363
60.690
60.1143
60.1989
60.3024
60.3903
60.4248
60.4376
60.4245
60.3739
60.2955
60.2396
60.1684
60.874
60.40
59.9618
59.9519
59.9488
59.9673
60.77
60.647
60.1173
60.1517
60.1520
60.1187
60.703
60.104
59.9467
59.8722
59.8101
59.7446
59.6591
59.5978
59.5739
59.5752
59.5869
59.6446
59.7356
59.8295
59.8828
59.8985
59.9048
59.8835
59.8354
59.7937
59.7510
59.7135
59.6672
59.6421
59.6587
59.6972
59.7512
59.8159
59.9111
60.86
60.1012
60.1611
60.1871
60.1928
60.1821
60.1685
60.1441
60.1192
60.905
60.369
60.33
60.119
60.396
60.712
60.1293
60.2186
60.3205
60.3877
60.4177
60.4276
60.4154
60.3619
60.3000
60.2428
60.1837
60.1054
60.447
60.134
60.69
60.117
60.343
60.833
60.1414
60.1833
60.2033
60.1875
60.1411
60.933
60.314
59.9727
59.9006
59.8444
59.7702
59.6918
59.6416
59.6400
59.6492
59.6827
59.7617
59.8573
59.9375
59.9742
59.9939
59.9943
59.9660
59.9235
59.8899
59.8567
59.8081
59.7557
59.7426
59.7632
59.7965
59.8422
59.9136
60.28
60.946
60.1776
60.2248
60.2362
60.2445
60.2374
60.2188
60.1961
60.1746
60.1425
60.920
60.742
60.918
60.1220
60.1503
60.2172
60.3255
60.4181
60.4685
60.4915
60.4906
60.4554
60.3868
60.3220
60.2513
60.1765
60.889
60.253
60.0
59.9984
60.21
60.293
60.892
60.1374
60.1796
60.1921
60.1702
60.1312
60.818
60.167
59.9473
59.8810
59.8218
59.7345
59.6643
59.6275
59.6192
59.6279
59.6649
59.7487
59.8387
59.9022
59.9288
59.9319
59.9163
59.8798
59.8384
59.8004
59.7695
59.7200
59.6803
59.6908
59.7255
59.7601
59.8188
59.9021
59.9904
60.879
60.1550
60.1861
60.1927
60.1893
60.1746
60.1478
60.1156
60.899
60.501
60.40
59.9959
60.166
60.444
60.880
60.1762
60.2752
60.3561
60.3992
60.4097
60.4034
60.3515
60.2889
60.2282
60.1694
60.891
60.68
59.9674
59.9503
59.9529
59.9609
59.9990
60.499
60.915
60.1183
60.1198
60.750
60.273
59.9713
59.9034
59.8336
59.7755
59.7125
59.6307
59.5786
59.5680
59.5710
59.5876
59.6448
59.7341
59.8248
59.8754
59.8896
59.8964
59.8799
59.8335
59.7969
59.7613
59.7205
59.6670
59.6351
59.6503
59.6818
59.7281
59.7958
59.8972
59.9968
60.921
60.1476
60.1793
60.1854
60.1885
60.1750
60.1563
60.1345
60.1140
60.704
60.454
60.470
60.734
60.1035
60.1586
60.2524
60.3469
60.4121
60.4418
60.4559
60.4389
60.3755
60.3086
60.2465
60.1806
60.1017
60.376
60.107
60.23
60.49
60.240
60.728
60.1287
60.1804
60.2096
60.1927
60.1515
60.1089
60.546
59.9894
59.9147
59.8479
59.7715
59.6923
59.6493
59.6393
59.6514
59.6678
59.7457
59.8451
59.9287
59.9684
59.9847
59.9794
59.9549
59.9048
59.8661
59.8293
59.7768
59.7255
59.7188
59.7413
59.7761
59.8308
59.9107
60.39
60.1052
60.1851
60.2339
60.2421
60.2354
60.2223
60.2016
60.1776
60.1469
60.1116
60.674
60.587
60.766
60.1131
60.1498
60.2256
60.3247
60.4183
60.4674
60.4832
60.4796
60.4341
60.3640
60.2978
60.2315
60.1566
60.647
60.89
59.9860
59.9820
59.9913
60.252
60.819
60.1274
60.1702
60.1762
60.1466
60.1031
60.507
59.9900
59.9222
59.8593
59.7958
59.7111
59.6448
59.6178
59.6223
59.6360
59.6787
59.7616
59.8583
59.9184
59.9379
59.9357
59.9199
59.8740
59.8255
59.7914
59.7539
59.7010
59.6618
59.6727
59.7015
59.7474
59.8080
59.9059
59.9991
60.933
60.1605
60.1970
60.2033
60.2027
60.1920
60.1670
60.1324
60.1049
60.631
60.159
60.88
60.240
60.537
60.903
60.1778
60.2816
60.3630
60.4019
60.4191
60.4108
60.3611
60.2917
60.2359
60.1759
60.959
60.190
59.9790
59.9587
59.9532
59.9657
60.101
60.590
60.1092
60.1489
60.1425
60.1004
60.582
59.9992
59.9328
59.8619
59.7983
59.7214
59.6344
59.5755
59.5658
59.5675
59.5869
59.6477
59.7460
59.8369
59.8923
59.9244
59.9364
59.9154
59.8763
59.8384
59.8004
59.7627
59.7026
59.6714
59.6834
59.7074
59.7469
59.8148
59.9118
60.105
60.1042
60.1698
60.1988
60.2055
60.2036
60.2017
60.1749
60.1486
60.1197
60.692
60.376
60.422
60.713
60.1040
60.1607
60.2573
60.3617
60.4256
60.4496
60.4540
60.4352
60.3743
60.3084
60.2500
60.1801
60.936
60.243
59.9895
59.9844
59.9911
60.151
60.740
60.1330
60.1878
60.2110
60.2016
60.1602
60.1107
60.540
59.9815
59.9060
59.8441
59.7560
59.6761
59.6335
59.6247
59.6288
59.6444
59.7143
59.8091
59.8845
59.9156
59.9339
59.9268
59.8985
59.8505
59.8186
59.7803
59.7340
59.6905
59.6884
59.7073
59.7351
59.7893
59.8690
59.9668
60.569
60.1383
60.1844
60.1988
60.1978
60.1895
60.1613
60.1325
60.974
60.564
60.80
59.9819
60.19
60.308
60.654
60.1413
60.2406
60.3301
60.3798
60.4048
60.4050
60.3744
60.3191
60.2657
60.2133
60.1401
60.518
60.32
59.9812
59.9699
59.9678
59.9968
60.463
60.899
60.1357
60.1429
60.1137
60.754
60.249
59.9621
59.8973
59.8347
59.7744
59.6914
59.6282
59.5987
59.5957
59.6054
59.6511
59.7383
59.8353
59.8966
59.9238
59.9330
59.9249
59.8841
59.8373
59.8038
59.7627
59.7077
59.6622
59.6588
59.6845
59.7186
59.7755
59.8624
59.9537
60.508
60.1258
60.1581
60.1610
60.1702
60.1698
60.1520
60.1240
60.988
60.568
60.161
60.45
60.183
60.529
60.910
60.1760
60.2806
60.3571
60.3917
60.4061
60.3950
60.3483
60.2817
60.2231
60.1529
60.710
59.9876
59.9594
59.9504
59.9505
59.9717
60.127
60.795
60.1350
60.1785
60.1809
60.1533
60.1137
60.570
59.9925
59.9236
59.8535
59.7830
59.6955
59.6381
59.6180
59.6189
59.6384
59.6995
59.7964
59.8937
59.9471
59.9721
59.9839
59.9686
59.9218
59.8861
59.8470
59.8056
59.7404
59.7153
59.7271
59.7614
59.8073
59.8790
59.9672
60.672
60.1589
60.2130
60.2289
60.2291
60.2213
60.2025
60.1779
60.1432
60.1195
60.674
60.405
60.520
60.804
60.1158
60.1761
60.2747
60.3734
60.4424
60.4686
60.4692
60.4466
60.3899
60.3287
60.2639
60.1961
60.1040
60.317
60.52
59.9937
59.9904
60.138
60.584
60.1089
60.1567
60.1767
60.1553
60.1110
60.636
60.91
59.9370
59.8668
59.8072
59.7252
59.6444
59.6045
59.5921
59.5974
59.6192
59.6948
59.7857
59.8605
59.8997
59.9116
59.9100
59.8725
59.8314
59.7885
59.7530
59.6992
59.6501
59.6418
59.6655
59.6902
59.7507
59.8339
59.9317
60.288
60.1118
60.1586
60.1697
60.1748
60.1675
60.1466
60.1165
60.837
60.390
59.9882
59.9608
59.9692
59.9937
60.200
60.969
60.1963
60.2825
60.3327
60.3543
60.3558
60.3285
60.2596
60.2001
60.1368
60.693
59.9874
59.9371
59.9179
59.9128
59.9178
59.9448
59.9967
60.523
60.887
60.1027
60.749
60.285
59.9734
59.9111
59.8348
59.7636
59.7006
59.6108
59.5428
59.5150
59.5093
59.5237
59.5694
59.6562
59.7556
59.8193
59.8450
59.8505
59.8464
59.8049
59.7639
59.7260
59.6972
59.6395
59.6013
59.6017
59.6298
59.6746
59.7380
59.8255
59.9242
60.143
60.890
60.1294
60.1383
60.1399
60.1355
60.1161
60.948
60.742
60.390
60.33
60.56
60.317
60.649
60.1129
60.1991
60.3008
60.3929
60.4282
60.4422
60.4344
60.3847
60.3213
60.2607
60.1957
60.1174
60.314
59.9856
59.9715
59.9727
59.9921
60.299
60.912
60.1477
60.1966
60.2067
60.1739
60.1297
60.762
60.161
59.9422
59.8808
59.8044
59.7236
59.6603
59.6446
59.6502
59.6697
59.7316
59.8222
59.9098
59.9600
59.9779
59.9777
59.9578
59.9128
59.8754
59.8374
59.7865
59.7324
59.7074
59.7270
59.7606
59.8037
59.8707
59.9710
60.712
60.1691
60.2281
60.2490
60.2494
60.2479
60.2263
60.1932
60.1635
60.1345
60.796
60.366
60.415
60.695
60.988
60.1611
60.2567
60.3569
60.4197
60.4479
60.4560
60.4349
60.3798
60.3201
60.2630
60.1910
60.1091
60.395
60.99
60.7
60.61
60.200
60.663
60.1135
60.1599
60.1787
60.1594
60.1143
60.651
60.79
59.9403
59.8672
59.8010
59.7182
59.6446
59.6059
59.5982
59.6048
59.6330
59.7145
59.8161
59.8954
59.9297
59.9474
59.9437
59.9065
59.8533
59.8152
59.7749
59.7285
59.6769
59.6654
59.6875
59.7178
59.7763
59.8499
59.9431
60.406
60.1248
60.1737
60.1912
60.1900
60.1854
60.1623
60.1284
60.1003
60.673
60.203
59.9926
60.138
60.382
60.795
60.1471
60.2437
60.3356
60.3798
60.4007
60.3968
60.3578
60.2907
60.2257
60.1629
60.851
60.18
59.9516
59.9254
59.9233
59.9366
59.9644
60.175
60.756
60.1194
60.1233
60.972
60.519
59.9998
59.9365
59.8644
59.7993
59.7397
59.6607
59.5905
59.5638
59.5631
59.5777
59.6142
59.7005
59.7983
59.8650
59.9005
59.9147
59.9143
59.8757
59.8289
59.7928
59.7599
59.7130
59.6741
59.6726
59.7025
59.7413
59.8011
59.8948
59.9884
60.865
60.1556
60.1941
60.1999
60.2028
60.1999
60.1845
60.1493
60.1273
60.862
60.464
60.465
60.745
60.1141
60.1606
60.2452
60.3560
60.4384
60.4821
60.5028
60.4971
60.4524
60.3831
60.3221
60.2558
60.1707
60.876
60.418
60.332
60.214
60.375
60.803
60.1384
60.1909
60.2240
60.2160
60.1738
60.1239
60.701
60.98
59.9444
59.8835
59.8175
59.7351
59.6811
59.6717
59.6778
59.6862
59.7428
59.8316
59.9155
59.9593
59.9784
59.9772
59.9511
59.8968
59.8547
59.8138
59.7755
59.7220
59.6969
59.7115
59.7450
59.7968
59.8733
59.9665
60.576
60.1451
60.1983
60.2155
60.2196
60.2126
60.1928
60.1713
60.1436
60.1221
60.776
60.427
60.494
60.816
60.1167
60.1720
60.2625
60.3550
60.4140
60.4397
60.4429
60.4200
60.3559
60.2905
60.2300
60.1675
60.887
60.225
59.9959
59.9978
60.65
60.329
60.780
60.1218
60.1623
60.1735
60.1557
60.1097
60.430
59.9803
59.9041
59.8343
59.7724
59.6945
59.6225
59.5812
59.5816
59.6009
59.6255
59.7001
59.7971
59.8718
59.9073
59.9237
59.9253
59.8861
59.8389
59.8052
59.7704
59.7197
59.6600
59.6489
59.6679
59.7065
59.7615
59.8465
59.9433
60.461
60.1295
60.1748
60.1853
60.1896
60.1837
60.1646
60.1424
60.1177
60.783
60.344
60.113
60.347
60.648
60.1030
60.1786
60.2752
60.3666
60.4203
60.4387
60.4351
60.3921
60.3279
60.2606
60.1993
60.1287
60.459
59.9939
59.9795
59.9755
59.9881
60.223
60.713
60.1308
60.1770
60.1866
60.1601
60.1181
60.678
60.56
59.9324
59.8686
59.8062
59.7263
59.6668
59.6442
59.6431
59.6531
59.6921
59.7807
59.8771
59.9402
59.9627
59.9601
59.9541
59.9049
59.8613
59.8237
59.7870
59.7391
59.7032
59.7106
59.7433
59.7888
59.8575
59.9485
60.497
60.1452
60.2118
60.2419
60.2427
60.2327
60.2192
60.1889
60.1535
60.1267
60.785
60.348
60.285
60.534
60.862
60.1321
60.2192
60.3185
60.3990
60.4369
60.4503
60.4392
60.3857
60.3138
60.2534
60.1833
60.1081
60.251
59.9924
59.9834
59.9819
60.41
60.472
60.918
60.1359
60.1684
60.1603
60.1152
60.611
59.9977
59.9282
59.8534
59.7932
59.7210
59.6391
59.5909
59.5838

END