=~=~=~=~=~=~=~=~=~=~=~= PuTTY log 2025.04.16 15:13:35 =~=~=~=~=~=~=~=~=~=~=~=




Speed (Hz)
60.2842
60.3465
60.3678
60.3702
60.3654
60.3387
60.3039
60.2864
60.2726
60.2424
60.1895
60.1473
60.1185
60.919
60.720
60.748
60.945
60.1111
60.1187
60.975
60.473
60.29
59.9685
59.9437
59.9228
59.9065
59.8812
59.8215
59.7671
59.7330
59.7123
59.6967
59.7145
59.7675
59.8283
59.8525
59.8475
59.8370
59.8249
59.7997
59.7949
59.8023
59.8060
59.7875
59.7689
59.7734
59.7843
59.8018
59.8308
59.8886
59.9514
60.159
60.529
60.626
60.641
60.794
60.983
60.1192
60.1386
60.1619
60.1448
60.1111
60.1009
60.1044
60.1021
60.1104
60.1584
60.2244
60.2659
60.2733
60.2657
60.2507
60.2225
60.1978
60.1875
60.1737
60.1395
60.844
60.561
60.334
60.96
59.9975
60.90
60.269
60.482
60.493
60.215
59.9766
59.9390
59.9086
59.8855
59.8621
59.8444
59.8045
59.7351
59.6793
59.6459
59.6224
59.6092
59.6404
59.7046
59.7650
59.7848
59.7898
59.7925
59.7848
59.7740
59.7887
59.8044
59.8074
59.7834
59.7726
59.7797
59.7919
59.8057
59.8453
59.9054
59.9700
60.318
60.620
60.668
60.764
60.930
60.1195
60.1438
60.1696
60.1846
60.1622
60.1386
60.1373
60.1456
60.1484
60.1797
60.2447
60.3154
60.3485
60.3513
60.3526
60.3353
60.3042
60.2816
60.2721
60.2519
60.2012
60.1492
60.1208
60.940
60.703
60.595
60.744
60.944
60.1152
60.1082
60.722
60.341
60.36
59.9794
59.9578
59.9438
59.9260
59.8776
59.8106
59.7674
59.7419
59.7240
59.7187
59.7592
59.8207
59.8608
59.8657
59.8610
59.8545
59.8381
59.8300
59.8467
59.8574
59.8513
59.8305
59.8359
59.8534
59.8696
59.8976
59.9505
60.115
60.742
60.1205
60.1403
60.1376
60.1469
60.1647
60.1849
60.2023
60.2257
60.2213
60.1894
60.1693
60.1720
60.1762
60.1815
60.2238
60.2911
60.3470
60.3638
60.3608
60.3597
60.3361
60.3058
60.2939
60.2803
60.2536
60.1962
60.1547
60.1291
60.1033
60.827
60.873
60.1039
60.1195
60.1283
60.1039
60.526
60.110
59.9773
59.9467
59.9268
59.9044
59.8750
59.8114
59.7507
59.7174
59.6979
59.6804
59.6963
59.7522
59.8162
59.8411
59.8410
59.8354
59.8279
59.8088
59.8076
59.8200
59.8220
59.7981
59.7767
59.7793
59.7835
59.7944
59.8204
59.8735
59.9327
59.9934
60.314
60.391
60.399
60.550
60.742
60.949
60.1141
60.1381
60.1179
60.913
60.790
60.847
60.845
60.993
60.1518
60.2203
60.2609
60.2693
60.2635
60.2507
60.2172
60.1845
60.1717
60.1463
60.1033
60.454
60.80
59.9811
59.9535
59.9368
59.9492
59.9722
59.9971
59.9993
59.9732
59.9283
59.8923
59.8639
59.8419
59.8185
59.7998
59.7568
59.6890
59.6304
59.5985
59.5753
59.5614
59.5909
59.6541
59.7110
59.7321
59.7345
59.7367
59.7309
59.7185
59.7300
59.7414
59.7456
59.7218
59.7097
59.7158
59.7285
59.7496
59.7896
59.8592
59.9281
59.9979
60.339
60.425
60.458
60.653
60.848
60.1039
60.1213
60.1338
60.1077
60.827
60.765
60.822
60.878
60.1181
60.1864
60.2591
60.3008
60.3121
60.3137
60.2998
60.2673
60.2488
60.2383
60.2171
60.1664
60.1166
60.842
60.565
60.330
60.253
60.419
60.621
60.773
60.703
60.332
59.9899
59.9579
59.9295
59.9119
59.8932
59.8785
59.8279
59.7646
59.7223
59.7002
59.6822
59.6790
59.7210
59.7876
59.8372
59.8482
59.8469
59.8458
59.8293
59.8192
59.8296
59.8364
59.8298
59.8013
59.7944
59.8050
59.8176
59.8420
59.8929
59.9596
60.260
60.791
60.1037
60.1055
60.1192
60.1408
60.1622
60.1841
60.2095
60.2106
60.1793
60.1610
60.1664
60.1671
60.1686
60.2062
60.2695
60.3238
60.3435
60.3421
60.3355
60.3088
60.2737
60.2586
60.2450
60.2183
60.1679
60.1288
60.1068
60.851
60.678
60.711
60.893
60.1075
60.1185
60.982
60.522
60.96
59.9733
59.9447
59.9208
59.8993
59.8728
59.8062
59.7427
59.7031
59.6809
59.6587
59.6719
59.7253
59.7878
59.8163
59.8185
59.8163
59.8099
59.7967
59.7991
59.8112
59.8197
59.8024
59.7818
59.7859
59.7928
59.8047
59.8361
59.8939
59.9557
60.211
60.601
60.706
60.698
60.855
60.1058
60.1265
60.1434
60.1673
60.1552
60.1274
60.1179
60.1285
60.1346
60.1487
60.2021
60.2781
60.3260
60.3435
60.3393
60.3330
60.3039
60.2747
60.2620
60.2399
60.1972
60.1413
60.1048
60.781
60.537
60.384
60.517
60.720
60.965
60.1032
60.765
60.323
60.27
59.9728
59.9513
59.9349
59.9237
59.8844
59.8185
59.7645
59.7346
59.7128
59.6982
59.7276
59.7876
59.8408
59.8564
59.8512
59.8491
59.8348
59.8199
59.8281
59.8442
59.8441
59.8215
59.8118
59.8238
59.8385
59.8619
59.9063
59.9705
60.376
60.990
60.1324
60.1373
60.1454
60.1627
60.1827
60.2019
60.2180
60.2279
60.1995
60.1759
60.1714
60.1783
60.1766
60.2072
60.2693
60.3384
60.3718
60.3784
60.3785
60.3656
60.3354
60.3234
60.3145
60.2941
60.2463
60.1986
60.1707
60.1462
60.1227
60.1155
60.1327
60.1509
60.1636
60.1491
60.1061
60.606
60.255
59.9935
59.9723
59.9524
59.9322
59.8754
59.8111
59.7697
59.7460
59.7254
59.7255
59.7740
59.8404
59.8860
59.8915
59.8923
59.8891
59.8717
59.8633
59.8735
59.8803
59.8658
59.8363
59.8324
59.8367
59.8443
59.8592
59.9075
59.9658
60.273
60.738
60.919
60.938
60.1081
60.1317
60.1541
60.1746
60.1970
60.1946
60.1560
60.1319
60.1308
60.1281
60.1328
60.1782
60.2469
60.3042
60.3240
60.3247
60.3198
60.2931
60.2594
60.2485
60.2293
60.1948
60.1365
60.907
60.602
60.329
60.125
60.141
60.354
60.582
60.692
60.485
60.44
59.9695
59.9410
59.9162
59.8951
59.8775
59.8446
59.7749
59.7117
59.6735
59.6436
59.6213
59.6371
59.6934
59.7586
59.7865
59.7888
59.7919
59.7866
59.7718
59.7753
59.7900
59.7987
59.7829
59.7665
59.7723
59.7836
59.8005
59.8310
59.8905
59.9558
60.185
60.591
60.679
60.740
60.905
60.1076
60.1316
60.1500
60.1673
60.1459
60.1140
60.1056
60.1137
60.1187
60.1340
60.1921
60.2669
60.3152
60.3321
60.3309
60.3276
60.3027
60.2841
60.2781
60.2660
60.2268
60.1731
60.1357
60.1077
60.748
60.585
60.690
60.858
60.1059
60.1061
60.770
60.356
60.35
59.9803
59.9560
59.9415
59.9278
59.8852
59.8187
59.7706
59.7395
59.7177
59.7065
59.7422
59.8076
59.8645
59.8839
59.8801
59.8813
59.8675
59.8550
59.8628
59.8736
59.8694
59.8412
59.8270
59.8325
59.8402
59.8592
59.8999
59.9625
60.253
60.863
60.1211
60.1266
60.1361
60.1581
60.1815
60.2028
60.2185
60.2246
60.1921
60.1661
60.1609
60.1605
60.1563
60.1826
60.2451
60.3091
60.3334
60.3373
60.3351
60.3142
60.2819
60.2682
60.2598
60.2388
60.1861
60.1400
60.1098
60.818
60.562
60.479
60.642
60.802
60.973
60.850
60.466
59.9974
59.9621
59.9334
59.9093
59.8868
59.8619
59.8008
59.7293
59.6819
59.6539
59.6317
59.6278
59.6708
59.7339
59.7731
59.7813
59.7807
59.7805
59.7651
59.7590
59.7759
59.7865
59.7768
59.7496
59.7486
59.7570
59.7675
59.7929
59.8443
59.9024
59.9674
60.101
60.275
60.269
60.329
60.512
60.718
60.893
60.1107
60.1079
60.752
60.577
60.603
60.667
60.694
60.1131
60.1830
60.2394
60.2570
60.2571
60.2524
60.2235
60.1922
60.1800
60.1616
60.1304
60.726
60.287
60.31
59.9771
59.9532
59.9511
59.9678
59.9865
59.9944
59.9723
59.9278
59.8913
59.8618
59.8403
59.8222
59.8056
59.7791
59.7176
59.6615
59.6266
59.6049
59.5881
59.5984
59.6487
59.7089
59.7302
59.7293
59.7260
59.7189
59.6980
59.6996
59.7149
59.7257
59.7119
59.6959
59.7071
59.7253
59.7441
59.7817
59.8426
59.9068
59.9702
60.131
60.218
60.288
60.407
60.605
60.839
60.1077
60.1314
60.1204
60.912
60.815
60.885
60.937
60.1047
60.1582
60.2257
60.2722
60.2815
60.2768
60.2698
60.2444
60.2234
60.2176
60.2033
60.1734
60.1252
60.984
60.777
60.563
60.442
60.551
60.740
60.899
60.889
60.544
60.37
59.9631
59.9325
59.9117
59.8933
59.8800
59.8445
59.7809
59.7310
59.7042
59.6862
59.6718
59.7036
59.7684
59.8294
59.8486
59.8492
59.8450
59.8315
59.8150
59.8237
59.8350
59.8350
59.8113
59.7958
59.8036
59.8136
59.8304
59.8676
59.9284
59.9918
60.525
60.807
60.834
60.898
60.1063
60.1263
60.1478
60.1733
60.1870
60.1610
60.1372
60.1332
60.1408
60.1454
60.1715
60.2330
60.3018
60.3320
60.3357
60.3280
60.3087
60.2707
60.2473
60.2343
60.2108
60.1589
60.1076
60.772
60.527
60.318
60.206
60.376
60.593
60.729
60.644
60.289
59.9873
59.9506
59.9239
59.9027
59.8827
59.8642
59.8082
59.7389
59.6897
59.6588
59.6329
59.6259
59.6645
59.7220
59.7644
59.7691
59.7637
59.7623
59.7419
59.7312
59.7444
59.7577
59.7527
59.7346
59.7395
59.7540
59.7676
59.7922
59.8398
59.9017
59.9656
60.140
60.300
60.232
60.286
60.492
60.684
60.866
60.1084
60.1065
60.798
60.606
60.678
60.745
60.780
60.1203
60.1899
60.2513
60.2785
60.2818
60.2804
60.2598
60.2303
60.2175
60.2060
60.1789
60.1227
60.817
60.541
60.266
60.61
60.8
60.194
60.376
60.490
60.268
59.9839
59.9443
59.9169
59.8943
59.8773
59.8659
59.8486
59.7903
59.7321
59.6967
59.6798
59.6630
59.6734
59.7248
59.7904
59.8209
59.8277
59.8248
59.8216
59.8045
59.8059
59.8219
59.8316
59.8195
59.7987
59.8015
59.8130
59.8249
59.8539
59.9101
59.9734
60.401
60.833
60.1003
60.1061
60.1269
60.1550
60.1824
60.2067
60.2304
60.2181
60.1906
60.1801
60.1886
60.1921
60.2018
60.2497
60.3198
60.3630
60.3702
60.3619
60.3519
60.3205
60.2923
60.2830
60.2666
60.2324
60.1815
60.1518
60.1311
60.1076
60.956
60.1112
60.1306
60.1544
60.1565
60.1267
60.805
60.397
60.80
59.9847
59.9615
59.9464
59.9053
59.8376
59.7826
59.7489
59.7257
59.7104
59.7411
59.7983
59.8565
59.8742
59.8751
59.8782
59.8689
59.8517
59.8600
59.8759
59.8784
59.8524
59.8398
59.8479
59.8588
59.8724
59.9130
59.9725
60.341
60.897
60.1176
60.1180
60.1229
60.1328
60.1507
60.1680
60.1845
60.1950
60.1691
60.1438
60.1425
60.1476
60.1531
60.1836
60.2460
60.3138
60.3458
60.3520
60.3489
60.3326
60.2981
60.2793
60.2641
60.2418
60.1895
60.1405
60.1107
60.824
60.561
60.456
60.579
60.761
60.895
60.796
60.426
60.11
59.9727
59.9520
59.9327
59.9159
59.9024
59.8495
59.7835
59.7359
59.7117
59.6895
59.6859
59.7314
59.7949
59.8361
59.8400
59.8353
59.8294
59.8136
59.8023
59.8151
59.8253
59.8189
59.7922
59.7910
59.8019
59.8142
59.8396
59.8907
59.9528
60.194
60.727
60.980
60.1036
60.1157
60.1345
60.1576
60.1765
60.1973
60.1948
60.1645
60.1437
60.1449
60.1476
60.1477
60.1918
60.2623
60.3240
60.3469
60.3459
60.3396
60.3195
60.2860
60.2757
60.2643
60.2383
60.1858
60.1474
60.1264
60.990
60.813
60.801
60.967
60.1123
60.1206
60.978
60.507
60.85
59.9783
59.9549
59.9368
59.9225
59.8940
59.8321
59.7702
59.7359
59.7141
59.6960
59.7104
59.7673
59.8320
59.8604
59.8670
59.8690
59.8655
59.8523
59.8574
59.8720
59.8779
59.8570
59.8328
59.8317
59.8363
59.8484
59.8735
59.9301
59.9895
60.529
60.905
60.1026
60.1074
60.1278
60.1502
60.1748
60.1981
60.2192
60.2027
60.1747
60.1668
60.1722
60.1685
60.1828
60.2369
60.3075
60.3521
60.3633
60.3573
60.3473
60.3182
60.2921
60.2791
60.2564
60.2106
60.1542
60.1212
60.919
60.638
60.478
60.585
60.741
60.897
60.883
60.596
60.168
59.9832
59.9588
59.9428
59.9239
59.9091
59.8630
59.7900
59.7318
59.6926
59.6641
59.6459
59.6753
59.7342
59.7846
59.7971
59.7919
59.7920
59.7824
59.7722
59.7807
59.7949
59.7964
59.7708
59.7576
59.7669
59.7752
59.7918
59.8295
59.8853
59.9498
60.47
60.362
60.406
60.447
60.598
60.805
60.988
60.1168
60.1253
60.925
60.617
60.551
60.545
60.514
60.800
60.1398
60.2082
60.2377
60.2437
60.2460
60.2331
60.2057
60.1914
60.1823
60.1648
60.1121
60.636
60.292
59.9964
59.9666
59.9536
59.9639
59.9801
59.9926
59.9799
59.9397
59.8986
59.8631
59.8390
59.8199
59.8047
59.7908
59.7391
59.6719
59.6251
59.5968
59.5763
59.5716
59.6169
59.6817
59.7245
59.7376
59.7413
59.7470
59.7387
59.7321
59.7499
59.7631
59.7582
59.7352
59.7282
59.7376
59.7440
59.7628
59.8087
59.8696
59.9380
59.9950
60.271
60.363
60.577
60.874
60.1183
60.1436
60.1685
60.1714
60.1405
60.1207
60.1231
60.1271
60.1269
60.1665
60.2330
60.2935
60.3186
60.3272
60.3266
60.3077
60.2816
60.2695
60.2585
60.2303
60.1790
60.1404
60.1153
60.880
60.699
60.727
60.959
60.1193
60.1363
60.1214
60.842
60.476
60.187
59.9980
59.9796
59.9582
59.9283
59.8616
59.7965
59.7546
59.7261
59.7047
59.7184
59.7749
59.8423
59.8776
59.8835
59.8889
59.8879
59.8765
59.8791
59.8960
59.9036
59.8866
59.8651
59.8652
59.8726
59.8840
59.9111
59.9637
60.277
60.916
60.1320
60.1428
60.1499
60.1630
60.1854
60.2065
60.2220
60.2431
60.2255
60.1935
60.1803
60.1859
60.1866
60.1977
60.2495
60.3196
60.3647
60.3773
60.3786
60.3710
60.3417
60.3168
60.3106
60.2881
60.2445
60.1845
60.1467
60.1153
60.806
60.587
60.647
60.796
60.975
60.963
60.665
60.259
59.9919
59.9631
59.9428
59.9220
59.9067
59.8605
59.7888
59.7312
59.6969
59.6692
59.6524
59.6815
59.7386
59.7867
59.7995
59.7962
59.7957
59.7834
59.7688
59.7782
59.7888
59.7863
59.7618
59.7444
59.7494
59.7573
59.7768
59.8157
59.8748
59.9432
60.33
60.363
60.401
60.499
60.695
60.920
60.1114
60.1277
60.1365
60.1024
60.725
60.651
60.661
60.637
60.874
60.1482
60.2138
60.2460
60.2526
60.2577
60.2477
60.2210
60.2079
60.2006
60.1805
60.1347
60.830
60.532
60.257
59.9989
59.9840
59.9943
60.111
60.275
60.205
59.9834
59.9422
59.9114
59.8885
59.8680
59.8490
59.8296
59.7769
59.7081
59.6577
59.6300
59.6081
59.6030
59.6490
59.7195
59.7671
59.7779
59.7826
59.7899
59.7844
59.7805
59.7984
59.8092
59.8038
59.7767
59.7715
59.7765
59.7828
59.8002
59.8475
59.9080
59.9760
60.284
60.561
60.660
60.834
60.1075
60.1360
60.1614
60.1873
60.1898
60.1599
60.1421
60.1408
60.1477
60.1525
60.1978
60.2709
60.3330
60.3595
60.3611
60.3612
60.3355
60.3004
60.2861
60.2709
60.2389
60.1796
60.1377
60.1071
60.792
60.594
60.613
60.800
60.1058
60.1179
60.1043
60.627
60.257
59.9996
59.9799
59.9584
59.9440
59.9153
59.8525
59.7924
59.7545
59.7296
59.7087
59.7206
59.7735
59.8370
59.8636
59.8658
59.8642
59.8614
59.8493
59.8483
59.8642
59.8717
59.8492
59.8296
59.8337
59.8445
59.8594
59.8881
59.9459
60.98
60.747
60.1174
60.1269
60.1323
60.1457
60.1650
60.1837
60.2006
60.2143
60.1903
60.1535
60.1400
60.1422
60.1414
60.1545
60.2102
60.2823
60.3298
60.3472
60.3502
60.3440
60.3194
60.2964
60.2906
60.2733
60.2294
60.1747
60.1351
60.1049
60.724
60.542
60.637
60.777
60.950
60.935
60.626
60.185
59.9825
59.9566
59.9348
59.9136
59.9007
59.8603
59.7982
59.7453
59.7174
59.6951
59.6773
59.7071
59.7705
59.8255
59.8438
59.8447
59.8498
59.8385
59.8261
59.8323
59.8436
59.8410
59.8154
59.8010
59.8042
59.8124
59.8301
59.8680
59.9289
59.9955
60.563
60.887
60.964
60.1122
60.1373
60.1631
60.1907
60.2159
60.2278
60.2015
60.1747
60.1714
60.1775
60.1746
60.2025
60.2662
60.3304
60.3621
60.3679
60.3654
60.3451
60.3148
60.2988
60.2889
60.2683
60.2201
60.1739
60.1446
60.1153
60.944
60.892
60.1068
60.1258
60.1412
60.1330
60.966
60.567
60.248
60.7
59.9813
59.9600
59.9395
59.8781
59.8070
59.7617
59.7332
59.7104
59.7101
59.7614
59.8305
59.8742
59.8860
59.8852
59.8902
59.8737
59.8740
59.8912
59.9005
59.8925
59.8746
59.8793
59.8919
59.9067
59.9324
59.9861
60.452
60.1081
60.1527
60.1699
60.1712
60.1838
60.2050
60.2304
60.2500
60.2744
60.2691
60.2367
60.2200
60.2283
60.2318
60.2415
60.2938
60.3634
60.4222
60.4389
60.4383
60.4356
60.4118
60.3867
60.3786
60.3634
60.3266
60.2686
60.2308
60.2034
60.1713
60.1548
60.1572
60.1693
60.1893
60.1959
60.1685
60.1245
60.903
60.638
60.469
60.288
60.173
59.9844
59.9166
59.8610
59.8314
59.8068
59.7887
59.8071
59.8601
59.9137
59.9284
59.9252
59.9227
59.9084
59.8901
59.8946
59.9079
59.9076
59.8839
59.8705
59.8746
59.8841
59.9010
59.9349
59.9970
60.608
60.1214
60.1573
60.1618
60.1709
60.1927
60.2146
60.2360
60.2547
60.2677
60.2382
60.2091
60.1985
60.1984
60.1922
60.2131
60.2675
60.3314
60.3614
60.3670
60.3638
60.3512
60.3228
60.3074
60.3003
60.2850
60.2393
60.1900
60.1608
60.1325
60.1075
60.943
60.1076
60.1267
60.1445
60.1359
60.993
60.571
60.244
59.9976
59.9769
59.9548
59.9381
59.8857
59.8210
59.7754
59.7483
59.7290
59.7234
59.7662
59.8353
59.8859
59.8981
59.8981
59.8995
59.8838
59.8759
59.8924
59.9034
59.8987
59.8739
59.8672
59.8753
59.8868
59.9047
59.9531
60.124
60.745
60.1239
60.1469
60.1500
60.1625
60.1789
60.2011
60.2237
60.2470
60.2477
60.2182
60.1993
60.1994
60.2042
60.2091
60.2536
60.3250
60.3872
60.4086
60.4102
60.4072
60.3833
60.3487
60.3329
60.3196
60.2867
60.2329
60.1959
60.1690
60.1437
60.1205
60.1262
60.1456
60.1669
60.1789
60.1652
60.1226
60.842
60.566
60.371
60.189
60.54
59.9744
59.9125
59.8548
59.8179
59.7924
59.7720
59.7868
59.8411
59.9034
59.9313
59.9319
59.9324
59.9279
59.9130
59.9140
59.9310
59.9358
59.9180
59.9015
59.9096
59.9214
59.9410
59.9740
60.320
60.947
60.1551
60.1963
60.1993
60.2006
60.2149
60.2313
60.2500
60.2650
60.2814
60.2592
60.2301
60.2233
60.2264
60.2284
60.2449
60.2983
60.3672
60.4058
60.4123
60.4085
60.3952
60.3634
60.3408
60.3311
60.3117
60.2661
60.2145
60.1827
60.1563
60.1263
60.1106
60.1185
60.1318
60.1419
60.1314
60.926
60.387
59.9996
59.9717
59.9478
59.9278
59.9138
59.8674
59.8039
59.7574
59.7383
59.7175
59.7107
59.7482
59.8123
59.8646
59.8737
59.8727
59.8713
59.8595
59.8449
59.8543
59.8624
59.8621
59.8358
59.8275
59.8350
59.8456
59.8674
59.9115
59.9731
60.392
60.920
60.1192
60.1226
60.1328
60.1525
60.1728
60.1936
60.2168
60.2201
60.1891
60.1693
60.1696
60.1754
60.1780
60.2104
60.2756
60.3388
60.3637
60.3619
60.3538
60.3278
60.2939
60.2749
60.2596
60.2334
60.1788
60.1344
60.1105
60.871
60.665
60.610
60.780
60.980
60.1077
60.892
60.450
60.0
59.9652
59.9367
59.9109
59.8890
59.8689
59.8079
59.7426
59.6969
59.6697
59.6477
59.6513
59.6951
59.7563
59.7916
59.7929
59.7881
59.7852
59.7701
59.7662
59.7828
59.7952
59.7839
59.7621
59.7653
59.7765
59.7907
59.8235
59.8789
59.9458
60.117
60.565
60.709
60.738
60.847
60.1033
60.1215
60.1369
60.1591
60.1479
60.1175
60.1040
60.1137
60.1231
60.1377
60.1925
60.2663
60.3270
60.3458
60.3483
60.3448
60.3167
60.2859
60.2743
60.2554
60.2205
60.1644
60.1305
60.1056
60.809
60.663
60.711
60.892
60.1085
60.1137
60.899
60.425
60.30
59.9728
59.9530
59.9365
59.9236
59.8934
59.8349
59.7818
59.7528
59.7337
59.7213
59.7436
59.8034
59.8619
59.8816
59.8800
59.8756
59.8617
59.8441
59.8443
59.8563
59.8579
59.8351
59.8221
59.8307
59.8452
59.8644
59.9036
59.9629
60.280
60.912
60.1244
60.1275
60.1310
60.1442
60.1623
60.1795
60.1928
60.2065
60.1833
60.1530
60.1435
60.1442
60.1455
60.1659
60.2222
60.2874
60.3195
60.3231
60.3164
60.3013
60.2707
60.2497
60.2382
60.2173
60.1716
60.1226
60.932
60.667
60.393
60.266
60.414
60.586
60.766
60.688
60.307
59.9824
59.9455
59.9122
59.8853
59.8610
59.8416
59.7917
59.7216
59.6712
59.6433
59.6232
59.6161
59.6570
59.7245
59.7754
59.7874
59.7874
59.7850
59.7696
59.7560
59.7665
59.7782
59.7763
59.7499
59.7414
59.7503
59.7622
59.7838
59.8246
59.8854
59.9457
59.9991
60.198
60.185
60.225
60.415
60.613
60.826
60.1079
60.1206
60.946
60.773
60.851
60.945
60.978
60.1334
60.2007
60.2669
60.2874
60.2883
60.2791
60.2560
60.2223
60.2065
60.1938
60.1720
60.1192
60.768
60.499
60.274
60.95
60.96
60.304
60.527
60.689
60.542
60.131
59.9717
59.9397
59.9158
59.8974
59.8766
59.8599
59.8047
59.7424
59.7014
59.6789
59.6607
59.6647
59.7095
59.7740
59.8076
59.8085
59.8054
59.8025
59.7843
59.7792
59.7960
59.8082
59.8004
59.7822
59.7891
59.8025
59.8198
59.8488
59.9053
59.9655
60.327
60.787
60.941
60.916
60.1039
60.1243
60.1447
60.1652
60.1898
60.1829
60.1513
60.1353
60.1392
60.1389
60.1427
60.1920
60.2595
60.3107
60.3243
60.3235
60.3213
60.2983
60.2737
60.2683
60.2565
60.2265
60.1762
60.1362
60.1106
60.864
60.625
60.679
60.855
60.1028
60.1030
60.769
60.298
59.9913
59.9632
59.9426
59.9264
59.9121
59.8844
59.8183
59.7643
59.7265
59.7061
59.6877
59.7122
59.7704
59.8313
59.8567
59.8538
59.8530
59.8422
59.8242
59.8280
59.8383
59.8392
59.8150
59.7944
59.7938
59.7981
59.8084
59.8379
59.8916
59.9496
60.70
60.437
60.483
60.557
60.730
60.958
60.1205
60.1416
60.1608
60.1402
60.1107
60.1026
60.1053
60.1015
60.1144
60.1677
60.2329
60.2654
60.2666
60.2567
60.2431
60.2117
60.1908
60.1796
60.1596
60.1155
60.612
60.311
60.19
59.9718
59.9570
59.9674
59.9860
60.30
59.9975
59.9631
59.9172
59.8807
59.8527
59.8288
59.8093
59.7943
59.7479
59.6783
59.6263
59.5934
59.5693
59.5553
59.5885
59.6497
59.7018
59.7134
59.7101
59.7090
59.6974
59.6874
59.7001
59.7136
59.7150
59.6906
59.6838
59.6942
59.7095
59.7307
59.7735
59.8348
59.8983
59.9541
59.9829
59.9810
59.9875
60.65
60.289
60.504
60.702
60.825
60.574
60.343
60.362
60.458
60.493
60.836
60.1514
60.2218
60.2558
60.2639
60.2648
60.2498
60.2205
60.2030
60.1892
60.1700
60.1179
60.685
60.383
60.93
59.9825
59.9745
59.9911
60.94
60.227
60.101
59.9692
59.9287
59.9021
59.8820
59.8664
59.8536
59.8407
59.7909
59.7288
59.6854
59.6609
59.6393
59.6353
59.6796
59.7441
59.7857
59.7945
59.7932
59.7890
59.7711
59.7657
59.7767
59.7826
59.7761
59.7519
59.7518
59.7628
59.7792
59.8044
59.8572
59.9218
59.9877
60.408
60.629
60.667
60.813
60.1036
60.1281
60.1466
60.1667
60.1616
60.1316
60.1106
60.1140
60.1146
60.1164
60.1566
60.2217
60.2810
60.2984
60.3038
60.2993
60.2793
60.2471
60.2335
60.2226
60.1946
60.1424
60.1082
60.834
60.569
60.383
60.372
60.547
60.732
60.816
60.593
60.110
59.9702
59.9369
59.9097
59.8871
59.8648
59.8358
59.7673
59.7007
59.6599
59.6342
59.6140
59.6255
59.6787
59.7429
59.7721
59.7769
59.7764
59.7689
59.7537
59.7546
59.7703
59.7769
59.7583
59.7376
59.7385
59.7469
59.7578
59.7825
59.8389
59.8969
59.9585
59.9986
60.69
60.81
60.184
60.349
60.544
60.709
60.917
60.759
60.425
60.326
60.381
60.424
60.546
60.1113
60.1835
60.2338
60.2467
60.2443
60.2345
60.2016
60.1714
60.1557
60.1344
60.908
60.303
59.9921
59.9652
59.9381
59.9206
59.9307
59.9486
59.9685
59.9750
59.9456
59.9002
59.8606
59.8332
59.8103
59.7910
59.7788
59.7422
59.6773
59.6245
59.5915
59.5686
59.5534
59.5745
59.6333
59.6925
59.7136
59.7106
59.7117
59.7018
59.6857
59.6915
59.7031
59.7077
59.6833
59.6702
59.6814
59.6920
59.7137
59.7578
59.8233
59.8916
59.9548
59.9967
60.71
60.171
60.358
60.532
60.708
60.866
60.1006
60.752
60.487
60.425
60.487
60.527
60.756
60.1415
60.2164
60.2582
60.2678
60.2705
60.2613
60.2339
60.2192
60.2145
60.1973
60.1542
60.1074
60.768
60.524
60.286
60.168
60.335
60.529
60.715
60.664
60.302
59.9882
59.9513
59.9236
59.8987
59.8796
59.8647
59.8178
59.7533
59.7028
59.6783
59.6595
59.6529
59.6931
59.7617
59.8142
59.8289
59.8297
59.8295
59.8183
59.8037
59.8168
59.8242
59.8197
59.7889
59.7770
59.7840
59.7894
59.8079
59.8493
59.9086
59.9727
60.289
60.550
60.566
60.676
60.888
60.1106
60.1292
60.1493
60.1526
60.1197
60.974
60.969
60.1012
60.1012
60.1345
60.1985
60.2637
60.2899
60.2900
60.2867
60.2660
60.2278
60.2106
60.1970
60.1702
60.1149
60.649
60.348
60.79
59.9863
59.9781
59.9997
60.218
60.382
60.267
59.9922
59.9528
59.9251
59.9018
59.8801
59.8613
59.8397
59.7766
59.7073
59.6578
59.6273
59.6013
59.5972
59.6429
59.7082
59.7480
59.7561
59.7571
59.7593
59.7464
59.7426
59.7579
59.7690
59.7568
59.7350
59.7381
59.7479
59.7615
59.7891
59.8435
59.9058
59.9698
60.157
60.312
60.306
60.435
60.604
60.801
60.976
60.1172
60.1107
60.795
60.661
60.743
60.839
60.949
60.1427
60.2155
60.2707
60.2917
60.2960
60.2908
60.2655
60.2352
60.2268
60.2158
60.1822
60.1272
60.892
60.618
60.370
60.199
60.216
60.399
60.573
60.663
60.432
59.9968
59.9599
59.9302
59.9076
59.8919
59.8787
59.8531
59.7889
59.7339
59.7004
59.6806
59.6683
59.6890
59.7501
59.8137
59.8376
59.8368
59.8349
59.8224
59.7997
59.8041
59.8211
59.8246
59.8047
59.7887
59.7956
59.8078
59.8263
59.8607
59.9177
59.9794
60.430
60.816
60.889
60.930
60.1134
60.1350
60.1593
60.1820
60.2059
60.1868
60.1595
60.1541
60.1600
60.1598
60.1804
60.2364
60.3043
60.3400
60.3436
60.3367
60.3225
60.2925
60.2685
60.2588
60.2426
60.2026
60.1522
60.1253
60.1028
60.821
60.712
60.854
60.1053
60.1254
60.1235
60.870
60.396
59.9977
59.9628
59.9372
59.9112
59.8930
59.8423
59.7716
59.7239
59.6967
59.6786
59.6688
59.7057
59.7684
59.8207
59.8318
59.8340
59.8351
59.8247
59.8122
59.8251
59.8374
59.8337
59.8082
59.7984
59.8092
59.8189
59.8381
59.8795
59.9402
60.24
60.551
60.769
60.738
60.771
60.953
60.1121
60.1241
60.1467
60.1545
60.1256
60.1078
60.1105
60.1189
60.1218
60.1563
60.2215
60.2849
60.3114
60.3114
60.3064
60.2833
60.2442
60.2265
60.2136
60.1879
60.1337
60.862
60.556
60.283
60.64
59.9964
60.136
60.308
60.468
60.331
59.9890
59.9477
59.9187
59.8958
59.8760
59.8616
59.8418
59.7856
59.7220
59.6819
59.6582
59.6406
59.6441
59.6904
59.7563
59.7932
59.7934
59.7883
59.7824
59.7603
59.7506
59.7671
59.7759
59.7710
59.7538
59.7554
59.7694
59.7861
59.8192
59.8760
59.9364
60.27
60.485
60.647
60.650
60.776
60.950
60.1148
60.1310
60.1512
60.1409
60.1091
60.938
60.1010
60.1075
60.1181
60.1651
60.2346
60.2919
60.3106
60.3122
60.3064
60.2802
60.2511
60.2405
60.2241
60.1973
60.1464
60.1126
60.860
60.647
60.502
60.519
60.708
60.895
60.940
60.674
60.200
59.9754
59.9414
59.9123
59.8885
59.8721
59.8409
59.7805
59.7225
59.6898
59.6707
59.6561
59.6787
59.7387
59.8052
59.8335
59.8389
59.8394
59.8316
59.8140
59.8136
59.8230
59.8279
59.8050
59.7844
59.7882
59.7981
59.8116
59.8418
59.9008
59.9653
60.282
60.686
60.764
60.849
60.1033
60.1234
60.1445
60.1650
60.1843
60.1634
60.1343
60.1264
60.1328
60.1345
60.1526
60.2138
60.2873
60.3290
60.3386
60.3373
60.3246
60.2953
60.2707
60.2589
60.2391
60.1987
60.1466
60.1139
60.909
60.714
60.641
60.807
60.1056
60.1277
60.1298
60.1002
60.602
60.263
60.0
59.9767
59.9555
59.9370
59.8901
59.8201
59.7660
59.7374
59.7158
59.7050
59.7387
59.8005
59.8501
59.8591
59.8525
59.8486
59.8337
59.8201
59.8323
59.8441
59.8455
59.8252
59.8246
59.8330
59.8480
59.8722
59.9182
59.9778
60.396
60.912
60.1142
60.1085
60.1112
60.1254
60.1461
60.1621
60.1772
60.1816
60.1519
60.1297
60.1311
60.1394
60.1420
60.1796
60.2480
60.3110
60.3357
60.3358
60.3319
60.3124
60.2793
60.2583
60.2455
60.2195
60.1647
60.1182
60.905
60.646
60.369
60.289
60.435
60.587
60.674
60.472
60.15
59.9515
59.9159
59.8904
59.8679
59.8517
59.8365
59.7782
59.7162
59.6750
59.6510
59.6353
59.6411
59.6909
59.7596
59.8007
59.8051
59.8014
59.7981
59.7827
59.7748
59.7848
59.7904
59.7778
59.7537
59.7570
59.7678
59.7841
59.8122
59.8699
59.9329
60.20
60.556
60.765
60.819
60.998
60.1197
60.1396
60.1624
60.1851
60.1756
60.1423
60.1274
60.1312
60.1370
60.1465
60.1962
60.2683
60.3236
60.3409
60.3376
60.3286
60.3043
60.2704
60.2606
60.2454
60.2130
60.1598
60.1291
60.1078
60.830
60.668
60.709
60.937
60.1135
60.1192
60.948
60.462
60.69
59.9734
59.9483
59.9241
59.9039
59.8718
59.8038
59.7440
59.7083
59.6849
59.6660
59.6888
59.7489
59.8123
59.8366
59.8408
59.8417
59.8357
59.8211
59.8268
59.8394
59.8420
59.8213
59.8032
59.8073
59.8171
59.8363
59.8716
59.9281
59.9877
60.495
60.842
60.887
60.913
60.1047
60.1250
60.1468
60.1609
60.1791
60.1601
60.1349
60.1287
60.1317
60.1346
60.1547
60.2162
60.2872
60.3245
60.3316
60.3264
60.3162
60.2834
60.2573
60.2420
60.2162
60.1645
60.1081
60.714
60.388
60.59
59.9894
59.9998
60.164
60.329
60.336
60.10
59.9597
59.9267
59.9007
59.8792
59.8579
59.8405
59.7930
59.7232
59.6697
59.6366
59.6134
59.5988
59.6336
59.6947
59.7462
59.7580
59.7568
59.7520
59.7381
59.7202
59.7272
59.7343
59.7314
59.7041
59.6948
59.7045
59.7163
59.7392
59.7872
59.8546
59.9225
59.9835
60.147
60.167
60.242
60.432
60.598
60.727
60.876
60.887
60.554
60.285
60.233
60.300
60.317
60.679
60.1363
60.2056
60.2381
60.2478
60.2501
60.2331
60.2021
60.1900
60.1834
60.1612
60.1097
60.634
60.359
60.122
59.9949
59.9889
60.83
60.311
60.461
60.353
59.9963
59.9568
59.9229
59.8938
59.8694
59.8469
59.8283
59.7741
59.7097
59.6698
59.6492
59.6334
59.6373
59.6886
59.7595
59.8106
59.8239
59.8293
59.8295
59.8195
59.8124
59.8254
59.8301
59.8172
59.7911
59.7844
59.7907
59.8011
59.8255
59.8802
59.9448
60.150
60.671
60.910
60.960
60.1144
60.1404
60.1672
60.1915
60.2165
60.2114
60.1798
60.1619
60.1634
60.1692
60.1747
60.2268
60.2984
60.3586
60.3788
60.3766
60.3685
60.3428
60.3096
60.2950
60.2756
60.2395
60.1820
60.1442
60.1165
60.886
60.701
60.781
60.1026
60.1298
60.1399
60.1219
60.778
60.405
60.119
59.9878
59.9659
59.9476
59.9139
59.8491
59.7879
59.7481
59.7223
59.7022
59.7215
59.7791
59.8402
59.8668
59.8686
59.8683
59.8575
59.8392
59.8420
59.8547
59.8574
59.8343
59.8178
59.8236
59.8348
59.8536
59.8906
59.9534
60.216
60.853
60.1213
60.1262
60.1303
60.1419
60.1573
60.1703
60.1816
60.1927
60.1684
60.1330
60.1293
60.1345
60.1402
60.1603
60.2237
60.2977
60.3426
60.3527
60.3516
60.3418
60.3116
60.2879
60.2728
60.2518
60.2050
60.1502
60.1151
60.864
60.580
60.416
60.508
60.691
60.885
60.846
60.514
60.49
59.9671
59.9402
59.9173
59.8967
59.8804
59.8332
59.7639
59.7136
59.6878
59.6687
59.6549
59.6926
59.7564
59.8094
59.8249
59.8281
59.8255
59.8111
59.7950
59.8015
59.8086
59.8050
59.7787
59.7646
59.7693
59.7750
59.7924
59.8340
59.8988
59.9687
60.247
60.581
60.611
60.732
60.932
60.1142
60.1376
60.1606
60.1677
60.1378
60.1137
60.1127
60.1163
60.1169
60.1476
60.2125
60.2806
60.3091
60.3137
60.3122
60.2930
60.2631
60.2448
60.2357
60.2120
60.1597
60.1164
60.903
60.636
60.393
60.350
60.537
60.773
60.955
60.858
60.452
60.41
59.9748
59.9487
59.9261
59.9039
59.8809
59.8199
59.7504
59.7033
59.6755
59.6555
59.6566
59.7063
59.7740
59.8222
59.8315
59.8341
59.8353
59.8208
59.8171
59.8309
59.8377
59.8255
59.8009
59.7975
59.8052
59.8232
59.8495
59.9041
59.9714
60.389
60.848
60.1017
60.1004
60.1116
60.1284
60.1469
60.1653
60.1866
60.1768
60.1419
60.1269
60.1324
60.1402
60.1531
60.2064
60.2828
60.3424
60.3610
60.3629
60.3581
60.3309
60.2995
60.2838
60.2622
60.2264
60.1698
60.1287
60.1008
60.730
60.562
60.621
60.838
60.1076
60.1171
60.960
60.511
60.176
59.9930
59.9713
59.9539
59.9366
59.9033
59.8362
59.7746
59.7385
59.7144
59.6965
59.7157
59.7728
59.8339
59.8572
59.8564
59.8523
59.8408
59.8216
59.8249
59.8369
59.8375
59.8137
59.7970
59.8029
59.8160
59.8326
59.8695
59.9326
59.9997
60.680
60.1067
60.1148
60.1189
60.1346
60.1566
60.1760
60.1894
60.2015
60.1717
60.1340
60.1215
60.1264
60.1247
60.1424
60.2041
60.2789
60.3237
60.3352
60.3319
60.3205
60.2895
60.2702
60.2583
60.2351
60.1881
60.1358
60.1049
60.751
60.452
60.304
60.456
60.670
60.869
60.880
60.553
60.80
59.9713
59.9409
59.9171
59.8908
59.8729
59.8269
59.7548
59.7012
59.6707
59.6499
59.6391
59.6763
59.7463
59.8021
59.8192
59.8224
59.8283
59.8207
59.8097
59.8216
59.8295
59.8236
59.7953
59.7847
59.7860
59.7912
59.8122
59.8535
59.9153
59.9845
60.468
60.769
60.805
60.926
60.1131
60.1394
60.1607
60.1857
60.1930
60.1602
60.1396
60.1381
60.1425
60.1440
60.1839
60.2530
60.3212
60.3467
60.3491
60.3438
60.3232
60.2864
60.2663
60.2506
60.2221
60.1700
60.1222
60.912
60.649
60.443
60.439
60.685
60.956
60.1156
60.1057
60.680
60.294
59.9944
59.9674
59.9425
59.9238
59.9028
59.8419
59.7749
59.7329
59.7092
59.6868
59.6896
59.7391
59.8023
59.8435
59.8489
59.8481
59.8477
59.8303
59.8233
59.8363
59.8429
59.8275
59.8072
59.8115
59.8209
59.8415
59.8726
59.9281
59.9948
60.615
60.1077
60.1220
60.1217
60.1322
60.1469
60.1624
60.1780
60.1942
60.1796
60.1465
60.1308
60.1370
60.1423
60.1529
60.2067
60.2821
60.3377
60.3591
60.3603
60.3527
60.3267
60.2965
60.2826
60.2651
60.2293
60.1729
60.1344
60.1087
60.787
60.611
60.685
60.859
60.1061
60.1088
60.831
60.361
59.9939
59.9618
59.9348
59.9093
59.8892
59.8580
59.7926
59.7407
59.7102
59.6911
59.6775
59.7042
59.7666
59.8258
59.8480
59.8486
59.8494
59.8372
59.8154
59.8165
59.8286
59.8252
59.7971
59.7802
59.7796
59.7908
59.8097
59.8444
59.9052
59.9733
60.364
60.729
60.801
60.842
60.1024
60.1217
60.1426
60.1590
60.1742
60.1496
60.1159
60.1080
60.1141
60.1149
60.1362
60.1945
60.2646
60.2990
60.3046
60.3001
60.2858
60.2506
60.2253
60.2085
60.1857
60.1372
60.828
60.554
60.284
60.64
59.9999
60.182
60.466
60.695
60.701
60.353
59.9891
59.9532
59.9221
59.9001
59.8768
59.8593
59.8059
59.7364
59.6847
59.6605
59.6403
59.6310
59.6707
59.7376
59.7919
59.8044
59.8051
59.8044
59.7907
59.7737
59.7829
59.7923
59.7919
59.7695
59.7650
59.7737
59.7882
59.8134
59.8609
59.9243
59.9921
60.489
60.720
60.710
60.788
60.910
60.1084
60.1260
60.1471
60.1521
60.1230
60.1061
60.1122
60.1244
60.1331
60.1750
60.2518
60.3206
60.3502
60.3601
60.3593
60.3375
60.3001
60.2789
60.2634
60.2330
60.1753
60.1274
60.970
60.704
60.515
60.518
60.731
60.960
60.1167
60.1055
60.641
60.234
59.9927
59.9653
59.9442
59.9236
59.9017
59.8437
59.7771
59.7409
59.7194
59.7026
59.7107
59.7644
59.8284
59.8628
59.8644
59.8593
59.8535
59.8340
59.8260
59.8402
59.8460
59.8333
59.8092
59.8113
59.8196
59.8357
59.8657
59.9254
59.9909
60.573
60.1039
60.1191
60.1211
60.1320
60.1488
60.1702
60.1881
60.2079
60.1953
60.1597
60.1414
60.1449
60.1440
60.1498
60.1993
60.2681
60.3200
60.3367
60.3345
60.3273
60.3011
60.2703
60.2594
60.2449
60.2097
60.1538
60.1161
60.936
60.698
60.501
60.562
60.704
60.909
60.949
60.659
60.150
59.9743
59.9379
59.9117
59.8881
59.8685
59.8317
59.7644
59.7079
59.6756
59.6527
59.6356
59.6607
59.7230
59.7858
59.8117
59.8142
59.8140
59.8052
59.7899
59.7929
59.8051
59.8052
59.7796
59.7621
59.7681
59.7735
59.7882
59.8212
59.8815
59.9453
60.79
60.410
60.475
60.526
60.701
60.916
60.1118
60.1337
60.1519
60.1320
60.1051
60.1002
60.1070
60.1113
60.1306
60.1940
60.2637
60.3016
60.3096
60.3069
60.2928
60.2582
60.2304
60.2158
60.1946
60.1481
60.964
60.653
60.389
60.142
60.91
60.286
60.479
60.707
60.721
60.370
59.9976
59.9679
59.9399
59.9187
59.8955
59.8843
59.8381
59.7684
59.7188
59.6881
59.6678
59.6574
59.6955
59.7585
59.8100
59.8217
59.8239
59.8233
59.8085
59.7970
59.8088
59.8189
59.8174
59.7945
59.7915
59.8006
59.8159
59.8383
59.8873
59.9508
60.191
60.760
60.1001
60.998
60.1080
60.1229
60.1424
60.1594
60.1794
60.1807
60.1492
60.1289
60.1273
60.1321
60.1334
60.1678
60.2348
60.3015
60.3314
60.3383
60.3397
60.3227
60.2933
60.2829
60.2733
60.2504
60.1953
60.1582
60.1301
60.1013
60.782
60.755
60.908
60.1079
60.1187
60.1027
60.595
60.177
59.9860
59.9633
59.9433
59.9263
59.9082
59.8474
59.7860
59.7460
59.7254
59.7057
59.7102
59.7633
59.8266
59.8626
59.8670
59.8610
59.8538
59.8353
59.8296
59.8388
59.8411
59.8214
59.7924
59.7871
59.7945
59.8055
59.8271
59.8806
59.9411
60.80
60.515
60.665
60.736
60.890
60.1096
60.1274
60.1450
60.1643
60.1490
60.1120
60.929
60.914
60.896
60.931
60.1372
60.2057
60.2570
60.2715
60.2682
60.2592
60.2282
60.1954
60.1818
60.1646
60.1301
60.742
60.371
60.91
59.9839
59.9704
59.9759
59.9931
60.147
60.197
59.9958
59.9524
59.9123
59.8831
59.8602
59.8379
59.8187
59.7810
59.7094
59.6473
59.6084
59.5876
59.5688
59.5923
59.6531
59.7167
59.7428
59.7489
59.7534
59.7496
59.7345
59.7383
59.7579
59.7653
59.7457
59.7282
59.7348
59.7445
59.7603
59.7951
59.8535
59.9160
59.9789
60.184
60.303
60.355
60.514
60.727
60.951
60.1128
60.1297
60.1099
60.846
60.783
60.886
60.961
60.1151
60.1768
60.2537
60.2998
60.3132
60.3123
60.3031
60.2765
60.2511
60.2426
60.2237
60.1762
60.1191
60.851
60.589
60.319
60.167
60.283
60.460
60.663
60.651
60.403
60.26
59.9754
59.9517
59.9323
59.9154
59.9061
59.8612
59.7961
59.7453
59.7193
59.6961
59.6842
59.7161
59.7745
59.8267
59.8378
59.8330
59.8351
59.8246
59.8136
59.8252
59.8390
59.8400
59.8143
59.8040
59.8090
59.8225
59.8437
59.8861
59.9457
60.120
60.684
60.959
60.988
60.1070
60.1288
60.1509
60.1740
60.1979
60.2044
60.1752
60.1508
60.1497
60.1501
60.1476
60.1787
60.2417
60.3052
60.3327
60.3401
60.3386
60.3235
60.2950
60.2837
60.2772
60.2576
60.2054
60.1613
60.1335
60.1052
60.837
60.762
60.920
60.1083
60.1218
60.1074
60.628
60.205
59.9874
59.9598
59.9369
59.9173
59.8951
59.8347
59.7713
59.7260
59.6983
59.6792
59.6815
59.7317
59.7943
59.8344
59.8425
59.8455
59.8474
59.8350
59.8324
59.8498
59.8561
59.8424
59.8166
59.8146
59.8192
59.8296
59.8524
59.9045
59.9643
60.270
60.714
60.870
60.900
60.1018
60.1201
60.1423
60.1588
60.1783
60.1672
60.1337
60.1159
60.1200
60.1212
60.1296
60.1768
60.2500
60.3037
60.3187
60.3204
60.3124
60.2824
60.2445
60.2289
60.2082
60.1662
60.1053
60.675
60.371
60.95
59.9928
59.9992
60.177
60.382
60.495
60.288
59.9804
59.9425
59.9123
59.8883
59.8649
59.8441
59.8089
59.7407
59.6798
59.6404
59.6153
59.5990
59.6191
59.6762
59.7390
59.7652
59.7646
59.7625
59.7557
59.7401
59.7410
59.7532
59.7578
59.7392
59.7182
59.7246
59.7344
59.7513
59.7892
59.8525
59.9216
59.9914
60.327
60.426
60.491
60.647
60.812
60.977
60.1125
60.1257
60.1015
60.706
60.587
60.669
60.727
60.920
60.1550
60.2339
60.2825
60.2919
60.2929
60.2811
60.2494
60.2256
60.2135
60.1930
60.1480
60.967
60.601
60.335
60.119
59.9993
60.108
60.269
60.484
60.481
60.170
59.9739
59.9378
59.9072
59.8869
59.8656
59.8517
59.8088
59.7416
59.6909
59.6653
59.6472
59.6378
59.6739
59.7408
59.7983
59.8147
59.8139
59.8159
59.8048
59.7907
59.7971
59.8033
59.7974
59.7680
59.7539
59.7607
59.7665
59.7868
59.8265
59.8892
59.9560
60.189
60.488
60.547
60.707
60.909
60.1123
60.1321
60.1521
60.1600
60.1298
60.1037
60.1010
60.1052
60.1074
60.1380
60.2033
60.2721
60.2986
60.3055
60.3030
60.2809
60.2436
60.2249
60.2134
60.1886
60.1337
60.846
60.576
60.347
60.161
60.108
60.285
60.512
60.673
60.561
60.191
59.9750
59.9406
59.9122
59.8900
59.8662
59.8437
59.7830
59.7136
59.6647
59.6364
59.6140
59.6140
59.6623
59.7313
59.7769
59.7869
59.7848
59.7879
59.7747
59.7701
59.7840
59.7962
59.7853
59.7615
59.7576
59.7667
59.7825
59.8064
59.8582
59.9210
59.9872
60.390
60.605
60.613
60.718
60.872
60.1024
60.1175
60.1336
60.1281
60.934
60.759
60.820
60.884
60.967
60.1449
60.2190
60.2849
60.3087
60.3133
60.3138
60.2939
60.2639
60.2511
60.2336
60.1988
60.1359
60.901
60.589
60.320
60.141
60.178
60.388
60.623
60.753
60.584
60.175
59.9828
59.9538
59.9295
59.9097
59.8905
59.8606
59.7989
59.7394
59.7034
59.6817
59.6645
59.6846
59.7464
59.8115
59.8410
59.8432
59.8446
59.8351
59.8164
59.8142
59.8236
59.8244
59.8066
59.7851
59.7908
59.8023
59.8212
59.8553
59.9197
59.9872
60.629
60.1070
60.1256
60.1326
60.1493
60.1702
60.1889
60.2077
60.2240
60.1967
60.1635
60.1518
60.1558
60.1573
60.1724
60.2266
60.2997
60.3445
60.3550
60.3510
60.3425
60.3153
60.2929
60.2867
60.2696
60.2256
60.1721
60.1384
60.1146
60.924
60.820
60.970
60.1152
60.1382
60.1389
60.1088
60.655
60.301
60.13
59.9777
59.9593
59.9387
59.8890
59.8165
59.7632
59.7313
59.7081
59.6956
59.7337
59.8013
59.8597
59.8804
59.8847
59.8864
59.8750
59.8616
59.8684
59.8778
59.8732
59.8439
59.8297
59.8297
59.8320
59.8454
59.8863
59.9418
60.68
60.603
60.878
60.894
60.951
60.1118
60.1303
60.1496
60.1685
60.1774
60.1465
60.1232
60.1225
60.1274
60.1305
60.1647
60.2335
60.3003
60.3298
60.3342
60.3317
60.3120
60.2753
60.2538
60.2383
60.2074
60.1499
60.973
60.635
60.332
60.105
60.37
60.258
60.508
60.718
60.665
60.344
59.9906
59.9570
59.9307
59.9072
59.8862
59.8636
59.7999
59.7306
59.6840
59.6542
59.6322
59.6306
59.6783
59.7434
59.7831
59.7876
59.7847
59.7844
59.7703
59.7626
59.7745
59.7840
59.7731
59.7510
59.7544
59.7642
59.7821
59.8110
59.8675
59.9361
60.44
60.498
60.675
60.665
60.742
60.868
60.1041
60.1168
60.1339
60.1240
60.909
60.714
60.734
60.811
60.866
60.1346
60.2091
60.2684
60.2878
60.2926
60.2876
60.2634
60.2295
60.2156
60.1997
60.1689
60.1159
60.779
60.551
60.299
60.153
60.180
60.332
60.531
60.580
60.359
59.9864
59.9472
59.9148
59.8898
59.8702
59.8537
59.8285
59.7701
59.7169
59.6855
59.6660
59.6502
59.6711
59.7280
59.7933
59.8202
59.8225
59.8260
59.8170
59.8021
59.8012
59.8135
59.8210
59.8044
59.7813
59.7867
59.7986
59.8122
59.8409
59.8982
59.9600
60.217
60.606
60.736
60.810
60.965
60.1184
60.1427
60.1623
60.1868
60.1699
60.1445
60.1394
60.1484
60.1517
60.1689
60.2230
60.2886
60.3277
60.3353
60.3273
60.3116
60.2747
60.2452
60.2333
60.2097
60.1665
60.1145
60.857
60.642
60.442
60.377
60.581
60.819
60.1040
60.1063
60.768
60.301
59.9930
59.9582
59.9336
59.9049
59.8894
59.8421
59.7692
59.7156
59.6846
59.6626
59.6539
59.6909
59.7541
59.8113
59.8260
59.8257
59.8260
59.8158
59.7976
59.8061
59.8193
59.8216
59.7997
59.7901
59.8030
59.8157
59.8397
59.8824
59.9501
60.186
60.794
60.1101
60.1055
60.1100
60.1248
60.1378
60.1531
60.1665
60.1754
60.1439
60.1166
60.1168
60.1283
60.1369
60.1749
60.2469
60.3225
60.3560
60.3671
60.3650
60.3447
60.3059
60.2828
60.2649
60.2347
60.1782
60.1281
60.993
60.731
60.538
60.451
60.653
60.868
60.1068
60.939
60.562
60.104
59.9742
59.9483
59.9262
59.9058
59.8908
59.8362
59.7726
59.7316
59.7083
59.6916
59.6929
59.7426
59.8119
59.8532
59.8551
59.8461
59.8399
59.8208
59.8118
59.8207
59.8291
59.8168
59.7914
59.7950
59.8082
59.8269
59.8588
59.9174
59.9818
60.534
60.1023
60.1234
60.1250
60.1361
60.1567
60.1798
60.1929
60.2162
60.2087
60.1778
60.1650
60.1707
60.1769
60.1835
60.2331
60.3028
60.3588
60.3740
60.3717
60.3644
60.3412
60.3134
60.3103
60.3049
60.2894
60.2548
60.2434
60.2472
60.2568
60.2723
60.3175
60.3755
60.4403
60.4928
60.5160
60.5216
60.5400
60.5688
60.6083
60.6554
60.7101
60.7489
60.7632
60.7979
60.8619
60.9410
61.367
61.1861
61.3655
61.5336
61.6618
61.7827
61.9113
62.226
62.1525
62.3045
62.4539
62.5801
62.7108
62.8691
63.323
63.2083
63.4112
63.6435
63.8795
64.1055
64.2982
64.4770
64.6737
64.8785
65.892
65.3062
65.5123
65.6779
65.8625
66.689
66.2760
66.5003
66.7825
67.707
67.3120
67.5382
67.7509
67.9284
68.1199
68.3290
68.5344
68.7069
68.9048
69.1153
69.3225
69.5552
69.8196
70.893
70.3421
70.5511
70.7541
70.9710
71.1950
71.4330
71.6815
71.8784
72.786
72.3005
72.5219
72.7778
73.1098
73.4367
73.7122
73.9813
74.2372
74.4835
74.7660
75.476
75.2923
75.5727
75.8546
76.1409
76.4671
76.8147
77.1625
77.4643
77.7479
78.418
78.3429
78.6534
78.9575
79.2109
79.4860
79.7626
80.337
80.3922
80.7598
81.715
81.3740
81.6378
81.8960
82.1811
82.4407
82.6905
82.9641
83.2168
83.5035
83.8266
84.1438
84.4086
84.6592
84.9229
85.2000
85.5117
85.7736
86.193
86.2801
86.5340
86.8819
87.2743
87.5982
87.9147
88.1959
88.4939
88.8184
89.970
89.4105
89.7221
90.405
90.4198
90.8078
91.1446
91.4632
91.7919
92.1211
92.4781
92.7650
93.676
93.3531
93.6644
94.764
94.4321
94.7659
95.446
95.3171
95.6245
95.8852
96.1816
96.4536
96.7509
97.1052
97.4447
97.7176
97.9950
98.2808
98.6073
98.8853
99.1346
99.3921
99.6761
100.880
100.4426
100.7793
101.662
101.3774
101.7063
102.34
102.3353
102.6468
103.275
103.4240
103.7535
104.849
104.4133
104.7698
105.888
105.3873
105.6697
105.9773
106.3998
106.7510
107.847
107.3419
107.6480
107.9250
108.2255
108.4908
108.7888
109.1415
109.4563
109.7273
110.140
110.3327
110.6412
110.9046
111.1557
111.4615
111.8791
112.2128
112.5283
112.8115
113.1512
113.4491
113.7837
114.934
114.4790
114.8592
115.1751
115.5069
115.8395
116.1902
116.4816
116.7610
117.585
117.4726
117.8143
118.1131
118.3764
118.6789
118.9662
119.2463
119.5262
119.8820
120.1917
120.4620
120.7320
121.720
121.3372
121.5964
121.8331
122.2461
122.5978
122.9218
123.1927
123.5235
123.8285
124.1534
124.4703
124.8639
125.1984
125.5207
125.8362
126.2045
126.4966
126.7839
127.773
127.4926
127.8438
128.1177
128.3957
128.6761
128.9873
129.2408
129.5741
129.9162
130.1879
130.4619
130.8029
131.744
131.3354
131.5854
132.95
132.3505
132.6385
132.9477
133.2593
133.5988
133.8992
134.2918
134.6471
134.9770
135.2931
135.6597
135.9528
136.2070
136.5592
136.9475
137.2909
137.5336
137.8373
138.1455
138.4092
138.7203
139.673
139.3377
139.6070
139.9569
140.2261
140.4685
140.7832
141.1882
141.5300
141.7912
142.1234
142.4577
142.7634
143.1306
143.4977
143.8170
144.1287
144.4990
144.8016
145.359
145.4298
145.7943
146.901
146.3486
146.6402
146.9502
147.2116
147.5804
147.8653
148.1347
148.4666
148.7467
148.9874
149.2878
149.6842
150.162
150.2823
150.6061
150.9554
151.2517
151.6526
151.9754
152.2949
152.6529
152.9639
153.2372
153.5545
153.9481
154.2735
154.5180
154.8088
155.1175
155.3745
155.7333
156.63
156.2624
156.6158
156.8900
157.951
157.5106
157.8661
158.1346
158.4571
158.7844
159.856
159.4584
159.8047
160.1275
160.4718
160.7931
161.620
161.3849
161.7681
162.661
162.3250
162.6306
162.9157
163.2181
163.5558
163.8209
164.1093
164.4253
164.6694
164.9800
165.3699
165.6772
165.9707
166.3023
166.6218
166.9805
167.3338
167.6553
168.60
168.3282
168.5726
168.9577
169.3333
169.5828
169.8607
170.1893
170.4318
170.7984
171.835
171.3351
171.6963
171.9775
172.2066
172.6372
172.9724
173.2325
173.5682
173.9070
174.2598
174.6137
174.9307
175.2860
175.6085
175.8295
176.2439
176.6118
176.8236
177.1202
177.4467
177.7142
178.619
178.3278
178.6412
178.9479
179.1499
179.5667
179.9328
180.1779
180.5019
180.8573
181.1777
181.5426
181.8584
182.2081
182.5348
182.7442
183.1583
183.5118
183.7247
184.339
184.3173
184.6310
184.9416
185.1919
185.5447
185.8253
186.598
186.4727
186.7717
187.644
187.4214
187.7094
188.1038
188.4246
188.7348
189.799
189.3077
189.7009
190.776
190.2823
190.5923
190.8787
191.1964
191.4988
191.7403
192.968
192.3547
192.6615
193.548
193.3048
193.6215
193.9803
194.3053
194.6580
194.9631
195.3218
195.6368
195.8841
196.2863
196.5407
196.8088
197.1462
197.4051
197.7421
197.9922
198.3366
198.6192
198.8734
199.2846
199.5503
199.8644
200.2283
200.5509
200.8932
201.1874
201.5492
201.8472
202.1485
202.5408
202.7428
203.470
203.3376
203.6537
203.9479
204.1966
204.5564
204.7508
205.1662
205.5198
205.7780
206.1466
206.4354
206.8234
207.1400
207.4811
207.8081
208.314
208.4404
208.6785
208.9602
209.2809
209.5761
209.8838
210.1258
210.4911
210.6827
211.1049
211.4433
211.7101
212.820
212.3701
212.7332
213.337
213.3838
213.6682
213.9748
214.3635
214.5546
214.8936
215.1241
215.4801
215.7450
216.670
216.3596
216.6174
217.256
217.2568
217.6061
217.9103
218.2903
218.6061
218.9307
219.2631
219.4981
219.9129
220.1132
220.4339
220.6876
221.361
221.3117
221.6223
221.9218
222.1940
222.6067
222.8354
223.1957
223.4873
223.8690
224.1786
224.5155
224.8082
225.1110
225.4988
225.6924
226.492
226.2722
226.6179
226.8539
227.2192
227.4009
227.8225
228.1384
228.4039
228.7700
229.928
229.4309
229.7253
230.764
230.2780
230.7065
230.9073
231.2303
231.4709
231.8193
232.726
232.4107
232.6393
233.149
233.3672
233.6108
233.9934
234.3058
234.6511
234.9492
235.3070
235.5118
235.9478
236.1350
236.4818
236.7071
237.542
237.2891
237.6581
237.8377
238.2756
238.5677
238.8684
239.1995
239.5598
239.8749
240.1924
240.4699
240.7929
241.1478
241.3396
241.6930
241.9766
242.2807
242.5640
242.8647
243.1459
243.5412
243.7621
244.1453
244.4458
244.7921
245.809
245.4287
245.6581
246.731
246.2407
246.6044
246.8412
247.1744
247.4353
247.7763
248.196
248.4393
248.6548
249.394
249.3339
249.6892
249.9828
250.3208
250.5643
250.9632
251.1300
251.4922
251.7528
252.617
252.3390
252.6250
252.9423
253.2988
253.5384
253.9023
254.2319
254.5419
254.8536
255.882
255.4675
255.7417
256.168
256.2691
256.6136
256.8384
257.2185
257.3872
257.8472
258.725
258.4610
258.7413
259.991
259.3881
259.7430
259.9749
260.3675
260.5262
260.8783
261.1700
261.4371
261.7581
261.9505
262.3848
262.6441
262.9972
263.2821
263.6557
263.9367
264.3164
264.5238
264.9415
265.922
265.4519
265.7283
266.39
266.3260
266.5150
266.9602
267.2061
267.5773
267.8542
268.2182
268.4959
268.8385
269.814
269.4364
269.6232
269.9236
270.2481
270.4721
270.8509
271.362
271.4969
271.6868
272.805
272.3776
272.7017
272.9991
273.2042
273.6238
273.8248
274.1862
274.4041
274.7434
274.9978
275.2601
275.6141
275.9006
276.2358
276.5209
276.8860
277.1614
277.5062
277.7471
278.801
278.3056
278.5708
278.9129
279.1484
279.5243
279.7591
280.1322
280.3602
280.7019
281.528
281.3230
281.7042
281.9009
282.2855
282.4469
282.7433
283.694
283.2963
283.6877
283.9084
284.3010
284.5185
284.8483
285.1971
285.4711
285.8609
286.644
286.4351
286.6308
286.9041
287.2532
287.4979
287.8565
288.1223
288.4530
288.7510
289.498
289.4294
289.7050
290.103
290.3129
290.5717
290.9117
291.1321
291.4855
291.7489
291.9619
292.4119
292.6279
293.322
293.3144
293.6251
293.9388
294.1248
294.5686
294.6647
295.63
295.2845
295.4815
295.8480
296.339
296.3792
296.5833
296.8534
297.1735
297.3776
297.6204
297.8766
298.300
298.3199
298.4573
298.6828
298.8946
298.9846
299.3678
299.4260
299.7136
299.9146
300.646
300.3322
300.3963
300.6216
300.7203
300.8265
301.443
301.1358
301.2318
301.4990
301.5582
301.7957
301.8993
302.266
302.2060
302.2204
302.4733
302.4169
302.5401
302.6887
302.7387
302.8784
302.9829
303.547
303.2339
303.3035
303.4438
303.5158
303.4961
303.7492
303.6451
303.7828
303.8576
303.8608
304.280
304.383
304.1349
304.2213
304.2667
304.3990
304.4200
304.3928
304.5903
304.4913
304.6252
304.6293
304.6002
304.7563
304.7166
304.8480
304.8453
304.8943
305.69
305.47
305.55
305.1323
305.562
305.1763
305.1363
305.1151
305.2387
305.1697
305.3263
305.2611
305.3158
305.4060
305.4061
305.4310
305.4816
305.4165
305.5136
305.4512
305.4536
305.5285
305.4308
305.6079
305.4996
305.5625
305.6328
305.6261
305.6766
305.6614
305.6228
305.6835
305.6173
305.6388
305.6577
305.5502
305.7439
305.6149
305.7033
305.7494
305.7312
305.8077
305.7429
305.7386
305.7689
305.6972
305.7405
305.7272
305.6129
305.8023
305.6784
305.7726
305.7819
305.7516
305.8467
305.7464
305.7698
305.7477
305.6755
305.7267
305.6819
305.5757
305.7455
305.6304
305.7355
305.7155
305.6743
305.7640
305.6484
305.7114
305.6295
305.5694
305.6145
305.5491
305.4753
305.6064
305.5131
305.6101
305.5734
305.5407
305.6113
305.4925
305.5819
305.4385
305.4057
305.4419
305.3738
305.3417
305.4029
305.3214
305.4146
305.3684
305.3654
305.3948
305.2707
305.3948
305.1965
305.1962
305.2167
305.1412
305.1643
305.1517
305.977
305.1661
305.1293
305.1562
305.1325
305.125
305.1568
304.9493
304.9894
304.9743
304.8878
304.9580
304.8918
304.8917
304.9100
304.8807
304.9314
304.8777
304.7765
304.9064
304.7294
304.7991
304.7475
304.6514
304.7430
304.6485
304.7093
304.6549
304.6537
304.7084
304.6435
304.5973
304.6729
304.5383
304.6096
304.5219
304.4529
304.5212
304.4036
304.5208
304.3914
304.4236
304.4642
304.4248
304.4437
304.4240
304.3442
304.3941
304.3020
304.2949
304.2900
304.1665
304.3332
304.1767
304.2479
304.2559
304.2140
304.2835
304.1870
304.1693
304.1544
304.776
304.1086
304.531
303.9404
304.959
303.9713
304.718
304.532
304.12
304.833
303.9626
304.300
303.9183
303.8667
303.9057
303.8315
303.7850
303.8767
303.7941
303.8893
303.8521
303.8407
303.8739
303.7588
303.8881
303.6930
303.7058
303.7265
303.6553
303.6966
303.6781
303.6422
303.6986
303.6737
303.7103
303.6684
303.5644
303.7132
303.5191
303.5874
303.5567
303.4618
303.5592
303.4757
303.5270
303.4922
303.4835
303.5443
303.4901
303.4337
303.5181
303.3861
303.4635
303.3844
303.3258
303.3901
303.2800
303.4049
303.2795
303.3190
303.3627
303.3351
303.3673
303.3355
303.2705
303.3163
303.2360
303.2513
303.2369
303.1184
303.2893
303.1443
303.2412
303.2448
303.2029
303.2924
303.1807
303.2154
303.1641
303.1015
303.1481
303.842
303.141
303.1522
303.564
303.1594
303.1223
303.987
303.1628
303.525
303.1689
302.9937
302.9994
303.381
302.9759
303.9
303.149
302.9729
303.604
303.303
303.669
303.424
302.9393
303.924
302.8998
302.9673
302.9480
302.8642
302.9652
302.8852
302.9285
302.9108
302.9057
302.9676
302.9114
302.8673
302.9566
302.8228
302.9038
302.8284
302.7637
302.8363
302.7320
302.8574
302.7365
302.7872
302.8303
302.8010
302.8453
302.8099
302.7568
302.8031
302.7246
302.7484
302.7302
302.6159
302.7874
302.6481
302.7489
302.7466
302.7014
302.7983
302.6784
302.7270
302.6461
302.5939
302.6411
302.5707
302.5293
302.6391
302.5530
302.6518
302.6184
302.6106
302.6557
302.5395
302.6669
302.4684
302.4979
302.5217
302.4526
302.5083
302.4785
302.4620
302.5223
302.5026
302.5545
302.5114
302.4276
302.5731
302.4042
302.4903
302.4462
302.3589
302.4637
302.3793
302.4670
302.3910
302.4109
302.4719
302.4241
302.4220
302.4561
302.3584
302.4268
302.3429
302.3268
302.3491
302.2364
302.3992
302.2505
302.3352
302.3612
302.3233
302.4087
302.3204
302.3252
302.3101
302.2465
302.2951
302.2377
302.1557
302.3112
302.2150
302.3221
302.2998
302.2702
302.3419
302.2357
302.3517
302.1918
302.1926
302.2334
302.1779
302.2054
302.2256
302.1847
302.2641
302.2348
302.2757
302.2500
302.1578
302.3095
302.1245
302.1964
302.1711
302.829
302.1868
302.1083
302.1757
302.1419
302.1487
302.2106
302.1579
302.1335
302.2127
302.1059
302.1860
302.1104
302.819
302.1347
302.276
302.1850
302.504
302.1285
302.1675
302.1431
302.2113
302.1384
302.1210
302.1310
302.595
302.951
302.450
301.9518
302.1162
302.18
302.1073
302.950
302.535
302.1390
302.354
302.1314
301.9880
301.9712
302.161
301.9520
301.9549
302.10
301.9481
302.330
302.39
302.436
302.292
301.9296
302.897
301.8984
301.9682
301.9577
301.8765
301.9788
301.9064
301.9552
301.9353
301.9337
302.28
301.9515
301.9211
302.25
301.8884
301.9646
301.8907
301.8518
301.9162
301.8091
301.9593
301.8252
301.8934
301.9373
301.9094
301.9684
301.9009
301.8793
301.8984
301.8298
301.8688
301.8238
301.7321
301.9045
301.7996
301.8963
301.8896
301.8580
301.9468
301.8392
301.9346
301.7895
301.7771
301.8234
301.7618
301.7652
301.8054
301.7572
301.8410
301.8175
301.8527
301.8287
301.7282
301.8907
301.6944
301.7642
301.7546
301.6714
301.7751
301.6974
301.7539
301.7262
301.7305
301.7996
301.7473
301.7252
301.7980
301.6878
301.7662
301.6940
301.6631
301.7128
301.6082
301.7645
301.6277
301.6994
301.7376
301.7101
301.7794
301.7020
301.6911
301.6899
301.6204
301.6659
301.6147
301.5247
301.6842
301.5850
301.6909
301.6763
301.6473
301.7221
301.6217
301.7360
301.5789
301.5830
301.6231
301.5673
301.5971
301.6216
301.5847
301.6651
301.6476
301.6952
301.6677
301.5790
301.7352
301.5576
301.6394
301.6216
301.5401
301.6458
301.5688
301.6437
301.5935
301.6080
301.6701
301.6243
301.6170
301.6614
301.5632
301.6373
301.5556
301.5383
301.5653
301.4609
301.6300
301.4882
301.5767
301.5997
301.5627
301.6472
301.5574
301.5744
301.5449
301.4850
301.5405
301.4762
301.4016
301.5442
301.4558
301.5595
301.5335
301.5187
301.5775
301.4773
301.6101
301.4275
301.4505
301.4783
301.4159
301.4680
301.4515
301.4333
301.4895
301.4794
301.5367
301.4850
301.4043
301.5458
301.3843
301.4623
301.4122
301.3371
301.4351
301.3459
301.4530
301.3585
301.3883
301.4473
301.4122
301.4293
301.4294
301.3614
301.4165
301.3424
301.3604
301.3449
301.2333
301.4114
301.2764
301.3782
301.3851
301.3454
301.4404
301.3301
301.3888
301.2975
301.2604
301.3162
301.2534
301.2254
301.3139
301.2385
301.3391
301.3133
301.3285
301.3415
301.2427
301.3951
301.1915
301.2524
301.2644
301.1835
301.2723
301.2197
301.2473
301.2514
301.2539
301.3278
301.2767
301.2405
301.3490
301.2272
301.3127
301.2523
301.2047
301.2752
301.1718
301.3213
301.1931
301.2558
301.3006
301.2714
301.3285
301.2632
301.2402
301.2586
301.1874
301.2263
301.1782
301.869
301.2516
301.1445
301.2500
301.2359
301.2074
301.2881
301.1793
301.2879
301.1331
301.1278
301.1686
301.1068
301.1270
301.1499
301.1121
301.1874
301.1672
301.2169
301.1842
301.936
301.2494
301.713
301.1484
301.1205
301.418
301.1489
301.610
301.1448
301.788
301.1030
301.1658
301.1238
301.1258
301.1504
301.650
301.1325
301.522
301.543
301.512
300.9350
301.1178
300.9726
301.689
301.920
301.469
301.1401
301.419
301.921
301.225
300.9710
301.266
300.9660
300.9224
301.240
300.9455
301.442
301.232
301.379
301.563
300.9443
301.952
300.8870
300.9322
300.9482
300.8735
300.9553
300.9013
300.9311
300.9417
300.9338
301.44
300.9483
300.8938
301.6
300.8699
300.9486
300.8847
300.8385
300.9009
300.7983
300.9553
300.8205
300.8878
300.9365
300.9096
300.9725
300.9153
300.9044
300.9161
300.8535
300.9074
300.8630
300.7738
300.9399
300.8396
300.9425
300.9295
300.9070
300.9844
300.8775
300.9917
300.8218
300.8258
300.8634
300.8032
300.8321
300.8336
300.8125
300.8723
300.8553
300.9083
300.8676
300.7872
300.9360
300.7755
300.8536
300.8109
300.7326
300.8384
300.7519
300.8571
300.7648
300.8004
300.8612
300.8263
300.8483
300.8435
300.7801
300.8357
300.7572
300.7846
300.7673
300.6616
300.8451
300.7164
300.8188
300.8210
300.7842
300.8863
300.7844
300.8605
300.7457
300.7235
300.7770
300.7147
300.7072
300.7725
300.7152
300.8143
300.7907
300.8237
300.8076
300.7107
300.8746
300.6782
300.7475
300.7387
300.6591
300.7696
300.6958
300.7633
300.7298
300.7386
300.8131
300.7689
300.7562
300.8158
300.7146
300.7939
300.7140
300.7032
300.7377
300.6338
300.8015
300.6610
300.7498
300.7747
300.7403
300.8293
300.7346
300.7669
300.7205
300.6629
300.7207
300.6596
300.6084
300.7291
300.6496
300.7528
300.7344
300.7351
300.7721
300.6660
300.8167
300.6265
300.6730
300.6935
300.6200
300.6983
300.6504
300.6707
300.6908
300.6840
300.7478
300.6915
300.6372
300.7464
300.6119
300.6893
300.6226
300.5693
300.6386
300.5312
300.6747
300.5408
300.6082
300.6464
300.6217
300.6864
300.6215
300.6063
300.6086
300.5387
300.5815
300.5325
300.4487
300.6018
300.5020
300.6049
300.5892
300.5671
300.6378
300.5352
300.6592
300.4853
300.4961
300.5319
300.4705
300.5174
300.4975
300.4832
300.5349
300.5190
300.5754
300.5282
300.4480
300.5830
300.4350
300.5102
300.4548
300.3837
300.4732
300.3726
300.4917
300.3777
300.4204
300.4746
300.4566
300.4883
300.4479
300.4096
300.4388
300.3609
300.4020
300.3625
300.2527
300.4268
300.3233
300.4201
300.4065
300.3745
300.4654
300.3560
300.4617
300.3061
300.2998
300.3455
300.2895
300.3126
300.3241
300.2895
300.3565
300.3381
300.3918
300.3510
300.2587
300.4143
300.2493
300.3271
300.2899
300.2106
300.3079
300.2164
300.3266
300.2336
300.2645
300.3236
300.2973
300.3251
300.3099
300.2559
300.3048
300.2291
300.2603
300.2377
300.1302
300.3128
300.1947
300.2949
300.2965
300.2573
300.3500
300.2463
300.3414
300.2102
300.1936
300.2480
300.1883
300.1933
300.2306
300.1879
300.2685
300.2456
300.2928
300.2657
300.1722
300.3323
300.1559
300.2302
300.2047
300.1271
300.2309
300.1478
300.2481
300.1701
300.1944
300.2601
300.2303
300.2473
300.2603
300.1972
300.2551
300.1759
300.2066
300.1974
300.867
300.2684
300.1451
300.2483
300.2555
300.2213
300.3151
300.2170
300.3030
300.1917
300.1651
300.2171
300.1565
300.1576
300.2142
300.1653
300.2534
300.2340
300.2797
300.2633
300.1640
300.3277
300.1432
300.2135
300.1984
300.1187
300.2279
300.1477
300.2306
300.1722
300.1953
300.2597
300.2212
300.2276
300.2532
300.1742
300.2471
300.1680
300.1841
300.1844
300.740
300.2581
300.1200
300.2173
300.2320
300.1979
300.2952
300.1905
300.2665
300.1700
300.1364
300.1963
300.1282
300.1159
300.1888
300.1358
300.2227
300.2039
300.2401
300.2322
300.1385
300.3018
300.1098
300.1788
300.1761
300.955
300.2049
300.1315
300.2048
300.1639
300.1805
300.2505
300.2067
300.1945
300.2370
300.1544
300.2208
300.1414
300.1510
300.1582
300.462
300.2333
300.948
300.1914
300.2082
300.1734
300.2727
300.1743
300.2328
300.1492
300.1083
300.1676
300.1077
300.817
300.1667
300.1098
300.2127
300.1914
300.2232
300.2254
300.1224
300.2884
300.976
300.1629
300.1573
300.792
300.1833
300.1144
300.1777
300.1463
300.1561
300.2299
300.1783
300.1670
300.2168
300.1255
300.2026
300.1259
300.1221
300.1385
300.262
300.2031
300.677
300.1613
300.1807
300.1452
300.2371
300.1412
300.1938
300.1249
300.772
300.1398
300.767
300.396
300.1389
300.718
300.1716
300.1498
300.1716
300.1788
300.780
300.2464
300.554
300.1183
300.1183
300.473
300.1437
300.783
300.1423
300.1210
300.1230
300.1960
300.1475
300.1225
300.1875
300.889
300.1614
300.854
300.785
300.1052
299.9927
300.1695
300.310
300.1171
300.1405
300.1112
300.1959
300.971
300.1511
300.958
300.408
300.1051
300.468
300.80
300.1189
300.523
300.1509
300.1248
300.1462
300.1618
300.599
300.2209
300.279
300.892
300.996
300.260
300.1226
300.599
300.1104
300.992
300.1058
300.1802
300.1318
300.1029
300.1827
300.810
300.1596
300.851
300.728
300.1121
299.9989
300.1721
300.345
300.1183
300.1522
300.1206
300.2110
300.1201
300.1587
300.1140
300.619
300.1251
300.663
300.201
300.1364
300.615
300.1604
300.1384
300.1489
300.1777
300.711
300.2272
300.337
300.864
300.990
300.277
300.1194
300.646
300.999
300.983
300.1000
300.1759
300.1217
300.881
300.1757
300.678
300.1458
300.718
300.510
300.930
299.9879
300.1591
300.204
300.1025
300.1452
300.1207
300.2041
300.1181
300.1529
300.1157
300.583
300.1221
300.605
300.57
300.1324
300.534
300.1545
300.1338
300.1353
300.1724
300.677
300.2204
300.258
300.733
300.925
300.215
300.1078
300.548
300.812
300.825
300.844
300.1591
300.1093
300.663
300.1648
300.566
300.1388
300.694
300.418
300.927
299.9885
300.1561
300.227
300.1004
300.1376
300.1082
300.1967
300.1064
300.1300
300.1055
300.488
300.1004
300.418
299.9900
300.1183
300.406
300.1541
300.1256
300.1253
300.1616
300.585
300.2119
300.205
300.684
300.860
300.190
300.1030
300.503
300.787
300.965
300.920
300.1691
300.1227
300.766
300.1725
300.608
300.1483
300.838
300.482
300.1100
300.26
300.1683
300.369
300.1213
300.1635
300.1339
300.2128
300.1333
300.1484
300.1304
300.715
300.1353
300.798
300.121
300.1544
300.732
300.1715
300.1550
300.1553
300.1969
300.933
300.2383
300.535
300.956
300.1234
300.546
300.1320
300.952
300.1168
300.1405
300.1375
300.2143
300.1655
300.1155
300.2294
300.1119
300.1883
300.1277
300.914
300.1587
300.546
300.2168
300.855
300.1567
300.1985
300.1740
300.2445
300.1681
300.1688
300.1596
300.937
300.1497
300.875
300.112
300.1564
300.711
300.1732
300.1499
300.1397
300.1946
300.901
300.2301
300.395
300.750
300.1058
300.366
300.1028
300.717
300.845
300.1155
300.1107
300.1782
300.1288
300.760
300.1976
300.632
300.1463
300.851
300.350
300.1040
300.29
300.1518
300.177
300.904
300.1424
300.1140
300.1821
300.1101
300.1077
300.1033
300.333
300.885
300.355
299.9540
300.1076
300.242
300.1306
300.1098
300.1006
300.1621
300.626
300.1954
300.151
300.432
300.723
300.127
300.822
300.450
300.498
300.931
300.801
300.1484
300.978
300.341
300.1557
300.281
300.1027
300.451
299.9944
300.703
299.9682
300.1078
299.9799
300.449
300.855
300.643
300.1296
300.637
300.582
300.641
299.9947
300.471
299.9918
299.9099
300.602
299.9761
300.790
300.675
300.605
300.1276
300.246
300.1685
299.9826
300.107
300.450
299.9891
300.527
300.259
300.240
300.599
300.523
300.1186
300.697
300.20
300.1282
299.9955
300.753
300.163
299.9638
300.352
299.9323
300.776
299.9477
300.79
300.543
300.289
300.920
300.315
300.212
300.256
299.9547
300.146
299.9627
299.8804
300.408
299.9518
300.591
300.450
300.325
300.915
299.9866
300.1264
299.9519
299.9739
300.49
299.9488
300.131
299.9890
299.9920
300.340
300.228
300.941
300.448
299.9775
300.1061
299.9739
300.551
299.9979
299.9490
300.256
299.9246
300.761
299.9538
300.186
300.644
300.432
300.1104
300.478
300.423
300.522
299.9876
300.411
299.9984
299.9147
300.779
299.9879
300.957
300.818
300.697
300.1417
300.352
300.1687
299.9956
300.237
300.552
299.9920
300.563
300.297
300.284
300.792
300.661
300.1351
300.859
300.267
300.1530
300.186
300.1032
300.430
299.9881
300.734
299.9729
300.1143
299.9938
300.578
300.1072
300.897
300.1549
300.938
300.864
300.1072
300.470
300.953
300.490
299.9677
300.1323
300.358
300.1447
300.1287
300.1048
300.1734
300.714
300.1961
300.225
300.398
300.747
300.86
300.651
300.417
300.369
300.890
300.754
300.1430
300.948
300.257
300.1540
300.128
300.951
300.402
299.9796
300.696
299.9714
300.1058
299.9857
300.501
300.988
300.761
300.1325
300.740
300.537
300.784
300.67
300.528
300.65
299.9181
300.807
299.9867
300.965
300.777
300.539
300.1257
300.196
300.1426
299.9678
299.9862
300.171
299.9556
300.89
299.9893
299.9757
300.280
300.219
300.846
300.360
299.9655
300.919
299.9533
300.362
299.9856
299.9194
300.77
299.9133
300.529
299.9360
299.9936
300.451
300.258
300.880
300.368
300.141
300.315
299.9653
300.159
299.9697
299.8812
300.408
299.9471
300.537
300.362
300.95
300.852
299.9847
300.1145
299.9424
299.9632
299.9949
299.9372
299.9906
299.9729
299.9705
300.192
300.118
300.784
300.332
299.9691
300.1056
299.9675
300.541
300.30
299.9415
300.289
299.9376
300.772
299.9629
300.229
300.760
300.534
300.1065
300.531
300.316
300.491
299.9777
300.251
299.9802
299.8882
300.504
299.9493
300.539
300.419
300.178
300.884
299.9853
300.1126
299.9411
299.9597
299.9971
299.9328
299.9873
299.9796
299.9735
300.244
300.170
300.886
300.447
299.9822
300.1152
299.9744
300.616
300.106
299.9522
300.398
299.9444
300.830
299.9677
300.295
300.784
300.574
300.1109
300.570
300.382
300.567
299.9827
300.285
299.9805
299.8888
300.525
299.9559
300.575
300.457
300.200
300.950
299.9864
300.1166
299.9491
299.9641
300.36
299.9433
299.9926
299.9786
299.9740
300.325
300.212
300.896
300.448
299.9786
300.1232
299.9812
300.648
300.133
299.9531
300.400
299.9465
300.825
299.9653
300.191
300.711
300.495
300.1024
300.551
300.360
300.567
299.9867
300.373
299.9943
299.9050
300.735
299.9786
300.830
300.720
300.523
300.1304
300.319
300.1631
299.9898
300.120
300.520
299.9928
300.431
300.303
300.146
300.714
300.664
300.1310
300.881
300.168
300.1558
300.84
300.942
300.420
299.9791
300.695
299.9780
300.1115
299.9943
300.492
300.1015
300.799
300.1340
300.850
300.550
300.838
300.158
300.550
300.66
299.9166
300.857
299.9873
300.926
300.860
300.573
300.1354
300.351
300.1577
299.9867
299.9998
300.392
299.9748
300.202
300.175
299.9926
300.439
300.336
300.956
300.386
299.9626
300.1011
299.9500
300.293
299.9759
299.9075
299.9882
299.8927
300.204
299.9003
299.9563
300.53
299.9786
300.291
299.9794
299.9421
299.9587
299.8875
299.9234
299.8702
299.7720
299.9300
299.8297
299.9355
299.9183
299.8897
299.9618
299.8627
299.9815
299.8065
299.8240
299.8554
299.7932
299.8425
299.8241
299.8126
299.8606
299.8473
299.9092
299.8596
299.7880
299.9149
299.7732
299.8523
299.7945
299.7274
299.8071
299.7058
299.8440
299.7245
299.7880
299.8331
299.8049
299.8638
299.8062
299.7862
299.7941
299.7188
299.7615
299.7035
299.6131
299.7584
299.6557
299.7574
299.7343
299.7124
299.7654
299.6537
299.7797
299.5872
299.6113
299.6350
299.5549
299.6120
299.5727
299.5739
299.5971
299.5825
299.6493
299.5886
299.5281
299.6375
299.5046
299.5749
299.5057
299.4574
299.5125
299.3998
299.5523
299.4134
299.4881
299.5175
299.4897
299.5644
299.4789
299.4938
299.4701
299.4044
299.4634
299.4062
299.3455
299.4723
299.3941
299.4952
299.4750
299.4839
299.5167
299.4121
299.5603
299.3635
299.4179
299.4309
299.3580
299.4461
299.3898
299.4344
299.4272
299.4343
299.5106
299.4617
299.4363
299.5180
299.4152
299.4924
299.4211
299.4149
299.4415
299.3336
299.5144
299.3755
299.4746
299.4999
299.4718
299.5670
299.4795
299.5399
299.4703
299.4285
299.4961
299.4401
299.4132
299.5086
299.4513
299.5480
299.5257
299.5549
299.5522
299.4569
299.6282
299.4383
299.5085
299.5015
299.4206
299.5253
299.4456
299.5231
299.4756
299.5025
299.5751
299.5321
299.5371
299.5729
299.4936
299.5617
299.4749
299.4843
299.4734
299.3637
299.5437
299.4098
299.5018
299.5065
299.4699
299.5658
299.4618
299.5426
299.4268
299.4053
299.4583
299.3948
299.3908
299.4421
299.3977
299.4794
299.4636
299.5118
299.4819
299.3921
299.5538
299.3779
299.4523
299.4258
299.3449
299.4459
299.3598
299.4572
299.3670
299.4068
299.4702
299.4444
299.4748
299.4604
299.4124
299.4629
299.3926
299.4258
299.3959
299.3005
299.4814
299.3738
299.4829
299.4832
299.4491
299.5403
299.4435
299.5557
299.4030
299.4153
299.4678
299.4082
299.4490
299.4607
299.4406
299.5053
299.5036
299.5655
299.5252
299.4545
299.5982
299.4528
299.5436
299.4996
299.4360
299.5328
299.4512
299.5865
299.4786
299.5393
299.6007
299.5881
299.6572
299.6162
299.5968
299.6252
299.5677
299.6211
299.5811
299.5055
299.6757
299.5817
299.6993
299.6925
299.6730
299.7485
299.6550
299.7911
299.6192
299.6498
299.6875
299.6302
299.6986
299.6825
299.6824
299.7318
299.7282
299.7967
299.7487
299.6906
299.8160
299.6874
299.7778
299.7210
299.6630
299.7393
299.6396
299.7825
299.6599
299.7250
299.7733
299.7496
299.8215
299.7599
299.7498
299.7505
299.6896
299.7450
299.6958
299.6192
299.7693
299.6780
299.7894
299.7736
299.7608
299.8124
299.7006
299.8382
299.6493
299.6859
299.7073
299.6351
299.7088
299.6768
299.6828
299.7082
299.7068
299.7771
299.7295
299.6844
299.7945
299.6674
299.7521
299.6910
299.6470
299.7089
299.6062
299.7592
299.6282
299.7166
299.7600
299.7280
299.8162
299.7354
299.7467
299.7315
299.6771
299.7276
299.6713
299.6135
299.7503
299.6653
299.7757
299.7587
299.7563
299.7985
299.6977
299.8477
299.6575
299.7103
299.7317
299.6615
299.7497
299.7044
299.7373
299.7537
299.7626
299.8365
299.7870
299.7625
299.8693
299.7575
299.8426
299.7822
299.7585
299.8089
299.7081
299.8826
299.7511
299.8396
299.8753
299.8482
299.9381
299.8541
299.8855
299.8516
299.8011
299.8628
299.7995
299.7499
299.8793
299.8081
299.9137
299.8964
299.9089
299.9403
299.8440
300.13
299.8031
299.8616
299.8758
299.7996
299.8933
299.8408
299.8830
299.8815
299.8910
299.9681
299.9199
299.8935
299.9829
299.8754
299.9645
299.8989
299.8799
299.9229
299.8223
299.9992
299.8576
299.9473
299.9794
299.9458
300.349
299.9466
299.9812
299.9345
299.8848
299.9469
299.8846
299.8403
299.9648
299.8898
300.7
299.9771
299.9885
300.169
299.9212
300.844
299.8890
299.9486
299.9621
299.8868
299.9840
299.9309
299.9697
299.9638
299.9733
300.529
299.9986
299.9737
300.554
299.9518
300.339
299.9632
299.9410
299.9793
299.8740
300.462
299.9040
299.9918
300.242
299.9932
300.829
299.9901
300.230
299.9717
299.9234
299.9850
299.9179
299.8707
299.9906
299.9131
300.209
300.47
300.218
300.483
299.9457
300.1116
299.9193
299.9798
299.9948
299.9226
300.185
299.9630
300.66
300.91
300.156
300.879
300.381
300.130
300.947
299.9848
300.686
300.17
299.9763
300.164
299.9144
300.822
299.9386
300.313
300.618
300.291
300.1177
300.307
300.653
300.165
299.9616
300.233
299.9601
299.9183
300.363
299.9588
300.620
300.450
300.512
300.744
299.9747
300.1330
299.9346
299.9893
300.42
299.9262
300.151
299.9551
299.9975
299.9934
299.9910
300.579
300.32
299.9669
300.478
299.9385
300.129
299.9391
299.9184
299.9494
299.8380
300.50
299.8601
299.9392
299.9699
299.9344
300.181
299.9224
299.9548
299.8898
299.8268
299.8808
299.8028
299.7499
299.8605
299.7771
299.8696
299.8417
299.8482
299.8513
299.7490
299.8998
299.6969
299.7513
299.7568
299.6710
299.7593
299.6900
299.7354
299.7109
299.7146
299.7816
299.7226
299.6995
299.7596
299.6575
299.7269
299.6486
299.6390
299.6551
299.5410
299.7127
299.5697
299.6640
299.6802
299.6460
299.7431
299.6388
299.6936
299.6192
299.5853
299.6436
299.5829
299.5607
299.6556
299.5940
299.6922
299.6681
299.6973
299.6925
299.6015
299.7671
299.5744
299.6483
299.6431
299.5657
299.6696
299.6008
299.6723
299.6232
299.6465
299.7199
299.6824
299.6880
299.7308
299.6510
299.7235
299.6533
299.6648
299.6654
299.5607
299.7493
299.6202
299.7260
299.7419
299.7138
299.8187
299.7234
299.8091
299.7123
299.6949
299.7607
299.7047
299.7045
299.7761
299.7341
299.8332
299.8184
299.8641
299.8528
299.7623
299.9329
299.7524
299.8264
299.8141
299.7387
299.8506
299.7778
299.8677
299.8026
299.8285
299.9020
299.8745
299.8842
299.9054
299.8380
299.8936
299.8121
299.8233
299.8028
299.6840
299.8637
299.7296
299.8204
299.8238
299.7882
299.8777
299.7691
299.8553
299.7320
299.7018
299.7540
299.6905
299.6843
299.7303
299.6810
299.7660
299.7449
299.7897
299.7580
299.6604
299.8192
299.6462
299.7203
299.6898
299.6066
299.7053
299.6160
299.7175
299.6350
299.6655
299.7301
299.7012
299.7240
299.7182
299.6665
299.7210
299.6450
299.6807
299.6559
299.5549
299.7406
299.6289
299.7310
299.7341
299.7051
299.7975
299.7028
299.8102
299.6758
299.6717
299.7243
299.6689
299.6954
299.7238
299.6952
299.7693
299.7571
299.8212
299.7872
299.7040
299.8599
299.7084
299.7922
299.7604
299.6923
299.7976
299.7127
299.8332
299.7451
299.7956
299.8648
299.8475
299.8927
299.8815
299.8402
299.8898
299.8262
299.8695
299.8414
299.7464
299.9338
299.8317
299.9436
299.9447
299.9158
300.93
299.9095
300.212
299.8750
299.8829
299.9274
299.8717
299.9070
299.9262
299.9002
299.9742
299.9633
300.247
299.9851
299.9115
300.621
299.9004
299.9795
299.9359
299.8583
299.9536
299.8552
299.9688
299.8674
299.9120
299.9668
299.9363
299.9743
299.9413
299.8956
299.9356
299.8586
299.8897
299.8550
299.7550
299.9257
299.8111
299.9117
299.9079
299.8765
299.9560
299.8503
299.9602
299.7961
299.8011
299.8490
299.7824
299.8074
299.8090
299.7840
299.8450
299.8293
299.8826
299.8327
299.7561
299.8923
299.7335
299.8040
299.7453
299.6654
299.7473
299.6401
299.7580
299.6355
299.6785
299.7230
299.6890
299.7319
299.6760
299.6428
299.6630
299.5869
299.6217
299.5635
299.4730
299.6329
299.5302
299.6311
299.6107
299.5852
299.6572
299.5512
299.6779
299.5032
299.5227
299.5530
299.4873
299.5419
299.5200
299.5184
299.5657
299.5584
299.6307
299.5832
299.5300
299.6579
299.5286
299.6168
299.5636
299.5123
299.5892
299.4918
299.6472
299.5215
299.5957
299.6487
299.6284
299.7015
299.6343
299.6352
299.6376
299.5805
299.6416
299.5925
299.5216
299.6718
299.5955
299.7060
299.6884
299.6831
299.7366
299.6370
299.7913
299.6101
299.6525
299.6839
299.6223
299.7017
299.6635
299.6873
299.7103
299.7196
299.8030
299.7596
299.7183
299.8302
299.7262
299.8143
299.7509
299.7185
299.7840
299.6845
299.8577
299.7322
299.8124
299.8549
299.8426
299.9295
299.8460
299.8680
299.8513
299.7963
299.8629
299.8122
299.7533
299.8970
299.8273
299.9381
299.9263
299.9309
299.9768
299.8795
300.365
299.8531
299.8993
299.9272
299.8641
299.9499
299.9115
299.9396
299.9555
299.9609
300.403
299.9959
299.9560
300.589
299.9507
300.357
299.9750
299.9450
300.53
299.9050
300.736
299.9454
300.243
300.675
300.457
300.1340
300.558
300.746
300.606
300.60
300.662
300.113
299.9535
300.953
300.192
300.1304
300.1148
300.1219
300.1748
300.709
300.2213
300.379
300.878
300.1150
300.494
300.1305
300.898
300.1129
300.1380
300.1336
300.2108
300.1611
300.1186
300.2297
300.1104
300.1967
300.1296
300.938
300.1594
300.552
300.2116
300.806
300.1546
300.1996
300.1764
300.2555
300.1799
300.1869
300.1796
300.1184
300.1739
300.1210
300.549
300.2006
300.1171
300.2232
300.2026
300.1973
300.2536
300.1532
300.2994
300.1176
300.1589
300.1908
300.1295
300.2048
300.1752
300.1868
300.2218
300.2171
300.2817
300.2364
300.1821
300.3048
300.1779
300.2610
300.2009
300.1513
300.2266
300.1287
300.2789
300.1466
300.2189
300.2679
300.2411
300.3030
300.2370
300.2299
300.2349
300.1638
300.2147
300.1636
300.844
300.2467
300.1554
300.2633
300.2515
300.2381
300.3081
300.2106
300.3472
300.1725
300.1998
300.2351
300.1725
300.2374
300.2185
300.2090
300.2619
300.2577
300.3223
300.2731
300.2080
300.3428
300.2004
300.2799
300.2262
300.1644
300.2561
300.1571
300.2962
300.1769
300.2366
300.2830
300.2624
300.3185
300.2643
300.2413
300.2665
300.2016
300.2457
300.2007
300.1114
300.2756
300.1720
300.2781
300.2655
300.2391
300.3163
300.2153
300.3375
300.1665
300.1777
300.2167
300.1548
300.1984
300.1900
300.1710
300.2265
300.2142
300.2738
300.2305
300.1519
300.2933
300.1465
300.2283
300.1816
300.1099
300.2001
300.1108
300.2376
300.1302
300.1790
300.2329
300.2090
300.2567
300.2239
300.1868
300.2215
300.1548
300.1960
300.1571
300.674
300.2412
300.1308
300.2420
300.2365
300.2037
300.2863
300.1845
300.2943
300.1349
300.1370
300.1837
300.1247
300.1499
300.1600
300.1343
300.2016
300.1887
300.2458
300.2026
300.1187
300.2652
300.977
300.1672
300.1207
300.374
300.1237
300.273
300.1382
300.259
300.604
300.1093
300.710
300.989
300.640
300.215
300.523
299.9728
300.13
299.9606
299.8535
300.193
299.9009
299.9999
299.9888
299.9575
300.351
299.9230
300.310
299.8707
299.8630
299.8927
299.8286
299.8503
299.8526
299.8236
299.8821
299.8607
299.9066
299.8559
299.7698
299.9029
299.7378
299.8056
299.7500
299.6665
299.7434
299.6314
299.7401
299.6163
299.6571
299.7005
299.6584
299.6916
299.6376
299.5995
299.6128
299.5292
299.5656
299.5163
299.4145
299.5742
299.4686
299.5603
299.5411
299.5142
299.5741
299.4602
299.5852
299.3978
299.4103
299.4443
299.3739
299.4283
299.4010
299.3949
299.4299
299.4207
299.4903
299.4372
299.3774
299.5002
299.3708
299.4482
299.3856
299.3411
299.4078
299.2979
299.4542
299.3248
299.3958
299.4392
299.4159
299.4887
299.4149
299.4274
299.4150
299.3544
299.4159
299.3576
299.2911
299.4284
299.3579
299.4644
299.4420
299.4471
299.4887
299.3859
299.5425
299.3533
299.4019
299.4216
299.3544
299.4463
299.3913
299.4309
299.4339
299.4458
299.5265
299.4808
299.4583
299.5458
299.4460
299.5326
299.4655
299.4525
299.4981
299.3974
299.5769
299.4438
299.5392
299.5692
299.5436
299.6466
299.5582
299.6071
299.5557
299.5138
299.5784
299.5227
299.4973
299.5964
299.5383
299.6478
299.6245
299.6523
299.6717
299.5736
299.7377
299.5505
299.6091
299.5996
299.5177
299.6135
299.5363
299.5926
299.5552
299.5658
299.6333
299.5844
299.5758
299.6141
299.5234
299.5933
299.5128
299.5175
299.5158
299.3989
299.5793
299.4378
299.5322
299.5396
299.4991
299.5931
299.4869
299.5586
299.4493
299.4159
299.4670
299.4025
299.3893
299.4413
299.3915
299.4785
299.4543
299.4977
299.4845
299.3919
299.5569
299.3797
299.4602
299.4447
299.3712
299.4838
299.4047
299.5062
299.4353
299.4642
299.5261
299.4995
299.5227
299.5266
299.4710
299.5310
299.4585
299.4895
299.4735
299.3753
299.5586
299.4431
299.5455
299.5490
299.5170
299.6079
299.5023
299.6100
299.4755
299.4657
299.5165
299.4592
299.4854
299.5101
299.4794
299.5517
299.5430
299.6097
299.5827
299.5043
299.6586
299.5068
299.5919
299.5532
299.4872
299.5902
299.5014
299.6288
299.5360
299.5883
299.6534
299.6347
299.6775
299.6494
299.6145
299.6468
299.5839
299.6314
299.5954
299.5019
299.6775
299.5751
299.6809
299.6782
299.6504
299.7267
299.6175
299.7380
299.5684
299.5723
299.6118
299.5487
299.5877
299.5822
299.5635
299.6124
299.5921
299.6553
299.6062
299.5298
299.6642
299.5175
299.5932
299.5440
299.4822
299.5623
299.4582
299.5935
299.4683
299.5255
299.5724
299.5442
299.5997
299.5270
299.5165
299.5183
299.4452
299.4990
299.4423
299.3580
299.5134
299.4259
299.5263
299.5060
299.5029
299.5574
299.4525
299.5967
299.4171
299.4543
299.4859
299.4243
299.4948
299.4629
299.4855
299.5091
299.5106
299.5914
299.5408
299.5025
299.6235
299.5019
299.5895
299.5321
299.5010
299.5629
299.4658
299.6369
299.4978
299.5790
299.6268
299.6044
299.6860
299.6060
299.6383
299.6117
299.5627
299.6293
299.5657
299.5139
299.6543
299.5841
299.6911
299.6794
299.6936
299.7362
299.6396
299.8063
299.6192
299.6742
299.7025
299.6412
299.7324
299.6804
299.7204
299.7291
299.7410
299.8278
299.7815
299.7547
299.8499
299.7486
299.8316
299.7677
299.7512
299.7947
299.6950
299.8726
299.7361
299.8247
299.8594
299.8339
299.9211
299.8208
299.8558
299.8028
299.7454
299.8047
299.7343
299.6777
299.7897
299.7114
299.8079
299.7828
299.7916
299.8046
299.7033
299.8580
299.6556
299.7115
299.7167
299.6387
299.7286
299.6612
299.7064
299.6837
299.6925
299.7626
299.7102
299.6889
299.7498
299.6490
299.7175
299.6374
299.6245
299.6393
299.5289
299.7003
299.5572
299.6489
299.6717
299.6326
299.7300
299.6300
299.6860
299.6101
299.5711
299.6366
299.5754
299.5509
299.6435
299.5829
299.6824
299.6721
299.7028
299.7004
299.6131
299.7811
299.5888
299.6642
299.6655
299.5906
299.7033
299.6344
299.7147
299.6724
299.6954
299.7721
299.7347
299.7376
299.7859
299.7098
299.7825
299.7116
299.7297
299.7361
299.6316
299.8303
299.7004
299.8098
299.8342
299.8017
299.9156
299.8289
299.9120
299.8212
299.8017
299.8699
299.8243
299.8240
299.8996
299.8525
299.9523
299.9425
299.9875
299.9886
299.9022
300.710
299.8900
299.9777
299.9694
299.8979
300.178
299.9472
300.296
299.9819
300.88
300.743
300.323
300.370
300.682
299.9824
300.464
299.9696
299.9723
299.9631
299.8472
300.214
299.8791
299.9697
299.9739
299.9289
300.260
299.9128
299.9817
299.8748
299.8409
299.8923
299.8290
299.8150
299.8796
299.8214
299.9077
299.8813
299.9202
299.9047
299.8040
299.9620
299.7735
299.8429
299.8253
299.7392
299.8389
299.7510
299.8312
299.7638
299.7841
299.8495
299.8025
299.8033
299.8194
299.7423
299.7999
299.7137
299.7291
299.7113
299.5969
299.7731
299.6388
299.7304
299.7303
299.6890
299.7793
299.6712
299.7554
299.6330
299.6174
299.6717
299.6049
299.6044
299.6479
299.6054
299.6853
299.6609
299.7110
299.6803
299.5876
299.7482
299.5748
299.6431
299.6143
299.5330
299.6361
299.5458
299.6514
299.5704
299.6097
299.6732
299.6500
299.6813
299.6741
299.6286
299.6794
299.6128
299.6531
299.6328
299.5363
299.7277
299.6228
299.7289
299.7313
299.7096
299.8132
299.7156
299.8325
299.6942
299.6982
299.7542
299.7104
299.7347
299.7611
299.7438
299.8228
299.8146
299.8801
299.8490
299.7719
299.9314
299.7808
299.8620
299.8307
299.7646
299.8710
299.7868
299.9040
299.8136
299.8657
299.9329
299.9154
299.9634
299.9483
299.9121
299.9626
299.8969
299.9430
299.9171
299.8244
300.145
299.9141
300.299
300.372
300.103
300.1112
300.159
300.1300
299.9835
299.9876
300.375
299.9896
300.138
300.390
300.144
300.974
300.895
300.1492
300.1150
300.319
300.1857
300.240
300.1015
300.615
299.9832
300.818
299.9896
300.967
299.9995
300.401
300.934
300.654
300.948
300.693
300.213
300.639
299.9888
300.293
299.9924
299.8902
300.642
299.9560
300.638
300.597
300.220
300.1097
300.55
300.1098
299.9669
299.9602
300.2
299.9433
299.9647
299.9807
299.9526
300.274
300.124
300.728
300.413
299.9583
300.1104
299.9549
300.400
300.51
299.9294
300.327
299.9463
300.611
299.9734
300.155
300.754
300.572
300.961
300.816
300.376
300.885
300.164
300.537
300.333
299.9340
300.1100
300.4
300.1080
300.1095
300.846
300.1841
300.832
300.1881
300.541
300.468
300.948
300.401
300.635
300.899
300.586
300.1426
300.1262
300.1867
300.1629
300.823
300.2424
300.847
300.1726
300.1463
300.790
300.1926
300.1105
300.2256
300.1458
300.1862
300.2512
300.2284
300.2578
300.2572
300.2077
300.2699
300.1949
300.2259
300.2102
300.1089
300.2983
300.1862
300.2922
300.2947
300.2651
300.3648
300.2590
300.3522
300.2264
300.2131
300.2642
300.2010
300.2006
300.2364
300.1886
300.2721
300.2493
300.2922
300.2624
300.1636
300.3176
300.1365
300.2060
300.1788
300.936
300.1941
300.1036
300.1895
300.1163
300.1366
300.1970
300.1611
300.1661
300.1704
300.1022
300.1573
300.759
300.887
300.685
299.9588
300.1375
300.33
300.995
300.1057
300.690
300.1625
300.563
300.1446
300.255
300.36
300.575
299.9983
299.9964
300.513
300.13
300.972
300.833
300.1301
300.1133
300.219
300.1874
300.133
300.885
300.737
299.9981
300.1042
300.260
300.1204
300.544
300.848
300.1564
300.1263
300.1400
300.1563
300.846
300.1496
300.762
300.980
300.890
299.9819
300.1710
300.495
300.1531
300.1656
300.1359
300.2400
300.1415
300.2283
300.1278
300.1074
300.1717
300.1186
300.1151
300.1824
300.1351
300.2381
300.2204
300.2699
300.2594
300.1742
300.3375
300.1605
300.2417
300.2351
300.1568
300.2628
300.1952
300.2775
300.2304
300.2502
300.3204
300.2792
300.2738
300.3101
300.2220
300.2828
300.1937
300.1961
300.1934
300.654
300.2337
300.862
300.1756
300.1805
300.1358
300.2167
300.1021
300.1594
300.549
300.42
300.496
299.9784
299.9509
300.154
299.9466
300.341
300.8
300.310
300.169
299.9186
300.747
299.8739
299.9355
299.9158
299.8257
299.9187
299.8354
299.9126
299.8496
299.8619
299.9308
299.8849
299.8816
299.9151
299.8293
299.8986
299.8144
299.8189
299.8111
299.6995
299.8802
299.7445
299.8482
299.8605
299.8262
299.9303
299.8256
299.9064
299.8086
299.7869
299.8429
299.7825
299.7810
299.8475
299.8001
299.8948
299.8733
299.9164
299.9085
299.8179
299.9781
299.7989
299.8735
299.8550
299.7754
299.8802
299.7987
299.8847
299.8291
299.8612
299.9272
299.8948
299.9141
299.9330
299.8702
299.9507
299.8747
299.8941
299.8897
299.7871
299.9754
299.8520
299.9648
299.9797
299.9514
300.574
299.9609
300.474
299.9513
299.9383
299.9926
299.9364
299.9402
300.67
299.9606
300.565
300.441
300.906
300.826
299.9967
300.1589
299.9760
300.524
300.340
299.9487
300.572
299.9706
300.484
299.9832
300.79
300.709
300.343
300.380
300.526
299.9771
300.421
299.9578
299.9613
299.9479
299.8375
300.188
299.8820
299.9837
299.9867
299.9497
300.480
299.9416
300.186
299.9021
299.8740
299.9265
299.8633
299.8552
299.9089
299.8566
299.9457
299.9252
299.9643
299.9420
299.8465
300.51
299.8169
299.8904
299.8626
299.7723
299.8736
299.7904
299.8738
299.7988
299.8246
299.8933
299.8523
299.8626
299.8713
299.8000
299.8597
299.7832
299.8049
299.7872
299.6829
299.8653
299.7403
299.8455
299.8505
299.8140
299.9143
299.8113
299.9051
299.7773
299.7594
299.8097
299.7479
299.7561
299.7961
299.7588
299.8476
299.8293
299.8837
299.8643
299.7763
299.9390
299.7740
299.8531
299.8298
299.7569
299.8608
299.7767
299.8865
299.8143
299.8515
299.9197
299.8946
299.9218
299.9225
299.8696
299.9292
299.8621
299.9004
299.8863
299.7894
299.9775
299.8609
299.9707
299.9792
299.9477
300.453
299.9414
300.392
299.9099
299.8940
299.9327
299.8635
299.8640
299.8930
299.8426
299.9106
299.8787
299.9202
299.8815
299.7864
299.9280
299.7504
299.8196
299.7775
299.6910
299.7815
299.6879
299.7897
299.6935
299.7314
299.7864
299.7517
299.7756
299.7539
299.6990
299.7353
299.6572
299.6866
299.6518
299.5483
299.7207
299.6086
299.7064
299.7002
299.6663
299.7478
299.6419
299.7433
299.5863
299.5855
299.6207
299.5546
299.5795
299.5837
299.5544
299.6118
299.5917
299.6534
299.6083
299.5291
299.6745
299.5169
299.5890
299.5452
299.4766
299.5647
299.4686
299.5979
299.4860
299.5479
299.6042
299.5842
299.6394
299.5968
299.5735
299.5983
299.5304
299.5794
299.5381
299.4517
299.6206
299.5333
299.6480
299.6408
299.6304
299.7084
299.6092
299.7431
299.5802
299.6110
299.6553
299.5977
299.6637
299.6454
299.6433
299.7010
299.7023
299.7773
299.7347
299.6828
299.8250
299.6980
299.7918
299.7445
299.6964
299.7878
299.7025
299.8602
299.7440
299.8150
299.8741
299.8598
299.9321
299.8802
299.8762
299.8975
299.8407
299.8985
299.8498
299.7742
299.9346
299.8530
299.9657
299.9593
299.9491
300.221
299.9310
300.768
299.9057
299.9431
299.9868
299.9340
300.55
299.9929
299.9953
300.446
300.439
300.1176
300.774
300.257
300.1579
300.273
300.1201
300.663
300.89
300.914
299.9937
300.1310
300.1
300.549
300.845
300.438
300.874
300.53
299.9617
299.9328
299.8320
299.8408
299.7396
299.6113
299.7059
299.5564
299.5965
299.5154
299.4342
299.4134
299.2329
299.2992
299.287
298.9768
298.9059
298.7373
298.7239
298.5686
298.4977
298.3760
298.2636
298.2214
298.542
297.9086
297.8250
297.6082
297.5364
297.3171
297.1904
297.282
296.7668
296.7978
296.5269
296.4652
296.2974
296.1134
296.58
295.7240
295.6948
295.3424
295.1916
295.164
294.7589
294.6610
294.3950
294.2794
294.179
293.8467
293.7109
293.4854
293.3386
293.697
292.8795
292.6331
292.3559
292.2048
291.9360
291.7084
291.5173
291.2810
291.973
290.8491
290.6918
290.4266
290.1685
289.9637
289.6665
289.4626
289.1346
288.9388
288.6423
288.3368
288.1673
287.8723
287.6893
287.4209
287.2319
286.9460
286.6629
286.4442
286.1239
285.8938
285.5521
285.3341
285.158
284.7329
284.5089
284.2225
283.9819
283.6976
283.4888
283.1884
282.9518
282.6282
282.3759
282.358
281.7249
281.4858
281.1346
280.9254
280.5719
280.3843
280.73
279.7775
279.5261
279.2112
278.9906
278.5904
278.4406
277.9841
277.7528
277.4065
277.882
276.7901
276.3714
276.2003
275.8335
275.6007
275.2717
275.298
274.6998
274.4212
274.690
273.8006
273.3963
273.803
272.7927
272.4059
272.1723
271.7481
271.6022
271.1943
270.9751
270.6538
270.3880
270.572
269.7315
269.4338
269.1273
268.7612
268.4189
268.1457
267.7546
267.5166
267.826
266.9261
266.5188
266.2900
265.9653
265.6982
265.3662
265.780
264.7195
264.4610
264.269
263.7384
263.4207
263.558
262.7735
262.3458
262.1477
261.7895
261.4990
261.1779
260.9170
260.5747
260.3313
259.9039
259.7256
259.2902
259.285
258.6345
258.3594
257.9835
257.7244
257.3256
257.1358
256.7304
256.4987
256.1734
255.9053
255.5737
255.3074
254.9191
254.7057
254.2502
253.9946
253.6203
253.3198
252.9667
252.6745
252.3126
252.915
251.6861
251.4511
251.1305
250.8643
250.5403
250.2735
249.8800
249.6761
249.2286
248.9736
248.5832
248.2996
247.9215
247.6567
247.2362
247.571
246.6600
246.4091
246.756
245.8134
245.4742
245.2248
244.8000
244.6015
244.2288
243.8977
243.5521
243.2743
242.9112
242.6154
242.2283
241.9688
241.6916
241.3182
241.776
240.7715
240.4881
240.1606
239.8903
239.4804
239.2799
238.8477
238.5649
238.1716
237.8867
237.4987
237.2235
236.8078
236.5849
236.2872
235.9180
235.6691
235.3681
235.843
234.7537
234.4885
234.633
233.8642
233.4623
233.1443
232.7954
232.5071
232.1497
231.8370
231.5037
231.1671
230.9394
230.5408
230.2832
229.9407
229.6744
229.3394
229.534
228.6985
228.4055
228.1443
227.7162
227.4365
227.408
226.7510
226.3572
226.831
225.6687
225.4242
225.1445
224.7637
224.5087
224.1793
223.9104
223.5725
223.2942
222.9210
222.6413
222.3802
221.9544
221.6765
221.2760
220.9929
220.6093
220.3144
219.9466
219.6379
219.4008
218.9989
218.7236
218.3955
218.1465
217.8350
217.5256
217.2299
216.8168
216.6028
216.2213
215.8656
215.5626
215.2301
214.9119
214.5285
214.2578
213.8244
213.6076
213.3320
212.9600
212.6916
212.3546
212.1033
211.7888
211.4959
211.1943
210.7956
210.5781
210.2024
209.8446
209.5513
209.1929
208.8808
208.4903
208.2175
207.8332
207.5456
207.3068
206.9149
206.6171
206.3170
206.533
205.7530
205.4102
205.1339
204.7469
204.4889
204.2317
203.8000
203.4878
203.1276
202.8397
202.4991
202.1190
201.8323
201.4143
201.1729
200.9069
200.5137
200.2192
199.9130
199.6518
199.3502
199.64
198.7383
198.3881
198.872
197.8466
197.4420
197.973
196.7933
196.4423
196.1362
195.7660
195.4830
195.1438
194.7477
194.5335
194.2089
193.8723
193.6002
193.2597
193.195
192.7166
192.3967
192.1065
191.7186
191.4672
191.2196
190.8070
190.4694
190.1619
189.8058
189.5070
189.1430
188.8431
188.5070
188.727
187.8761
187.5932
187.2280
186.9372
186.6351
186.3648
186.707
185.7536
185.4888
185.1822
184.7731
184.5607
184.2772
183.8848
183.5642
183.2122
182.8983
182.5881
182.2285
181.9449
181.6002
181.1701
180.9698
180.6951
180.3209
180.158
179.7375
179.4393
179.1723
178.8714
178.5777
178.2716
177.8810
177.6251
177.3746
176.9987
176.6529
176.3518
175.9598
175.6841
175.3387
174.9646
174.6867
174.3356
173.9246
173.7220
173.4386
173.688
172.7613
172.4807
172.1599
171.9119
171.6076
171.2916
171.121
170.6895
170.3210
170.937
169.7950
169.4052
169.707
168.7465
168.3910
168.1189
167.7687
167.4104
167.1219
166.7616
166.3709
166.1617
165.8776
165.5134
165.2105
164.9388
164.6148
164.3835
164.764
163.7628
163.5048
163.1925
162.7967
162.5842
162.3273
161.9604
161.6250
161.3091
160.9500
160.6475
160.3579
160.101
159.6720
159.3790
159.222
158.6369
158.4407
158.1649
157.8013
157.5001
157.2150
156.8903
156.6498
156.3662
156.715
155.7782
155.4874
155.1690
154.7932
154.5853
154.3122
153.9346
153.6059
153.2928
152.9295
152.6217
152.3298
151.9772
151.6233
151.3414
150.9861
150.5695
150.3554
150.852
149.7702
149.4480
149.1346
148.8486
148.5264
148.2987
147.9982
147.7064
147.4216
147.1232
146.8073
146.4294
146.2231
145.9544
145.5966
145.2573
144.9140
144.5825
144.2194
143.9517
143.6176
143.2726
142.9501
142.6319
142.2751
141.8636
141.6493
141.3686
141.525
140.7186
140.4053
140.1191
139.7923
139.5391
139.2815
138.9820
138.6778
138.4204
138.813
137.7319
137.3961
137.1763
136.9058
136.5502
136.2158
135.8730
135.5596
135.1903
134.9116
134.6067
134.2585
133.9116
133.6324
133.2691
132.9032
132.5401
132.3397
132.573
131.7409
131.4153
131.1097
130.8135
130.4958
130.2196
129.9835
129.6810
129.3949
129.1051
128.8322
128.5079
128.1483
127.8608
127.6329
127.3581
127.74
126.6707
126.3273
126.122
125.6501
125.3426
125.746
124.7347
124.3991
124.658
123.7793
123.4118
123.440
122.6853
122.4793
122.1997
121.9069
121.5718
121.2860
120.9630
120.6726
120.3565
120.1117
119.8659
119.5663
119.2839
119.0
118.7321
118.3975
118.670
117.7225
117.5145
117.2496
116.9673
116.6144
116.3000
115.9548
115.6348
115.2768
114.9619
114.6923
114.3677
114.268
113.6920
113.3941
113.645
112.7035
112.3317
112.58
111.7945
111.5115
111.2224
110.8859
110.5953
110.2719
109.9695
109.6571
109.3658
109.1341
108.8792
108.5819
108.3027
108.216
107.7689
107.4344
107.1216
106.7681
106.4952
106.2729
105.9940
105.6967
105.3440
105.317
104.6900
104.3600
104.204
103.6785
103.3981
103.1177
102.7852
102.4474
102.1198
101.8075
101.4972
101.1240
100.7713
100.4002
100.1361
99.9106
99.6182
99.3285
98.9963
98.6987
98.3965
98.689
97.7767
97.4677
97.1993
96.9634
96.7113
96.4115
96.1245
95.8377
95.5603
95.2722
94.9350
94.6298
94.2896
94.155
93.8006
93.5307
93.2459
92.9186
92.5842
92.2716
91.9224
91.5845
91.2536
90.9105
90.6101
90.3352
90.487
89.7103
89.3802
89.581
88.7369
88.4373
88.794
87.7164
87.3777
87.304
86.7667
86.5424
86.2595
85.9658
85.6594
85.3392
85.529
84.7523
84.4229
84.1275
83.8312
83.5430
83.2988
83.684
82.8195
82.5289
82.2444
81.9662
81.6842
81.4128
81.1075
80.7642
80.4540
80.1376
79.8247
79.5871
79.3633
79.890
78.8025
78.5013
78.1653
77.8577
77.5426
77.1937
76.8459
76.5215
76.1857
75.8616
75.5770
75.2964
75.120
74.6823
74.3435
74.89
73.6857
73.3640
73.517
72.7121
72.3402
71.9911
71.6593
71.3234
71.330
70.7988
70.5552
70.2704
69.9785
69.6822
69.3686
69.690
68.7810
68.4816
68.1529
67.8393
67.5447
67.2484
66.9655
66.7134
66.4806
66.2483
66.33
65.7270
65.4552
65.1992
64.9451
64.6942
64.4439
64.1892
63.8961
63.6110
63.3520
63.1063
62.8615
62.6487
62.4777
62.3158
62.1187
61.9002
61.6810
61.4507
61.2083
60.9799
60.7638
60.5387
60.2966
60.546
59.8362
59.6297
59.4266
59.2431
59.878
58.9436
58.8045
58.6517
58.4742
58.2834
58.992
57.9202
57.7566
57.5948
57.4361
57.2826
57.954
56.9049
56.7334
56.5852
56.4512
56.3282
56.2440
56.1929
56.1473
56.685
55.9747
55.8721
55.7762
55.6724
55.5818
55.5122
55.4415
55.3606
55.2636
55.1738
55.1051
55.420
54.9891
54.9510
54.9380
54.9381
54.9412
54.9340
54.9055
54.8512
54.8006
54.7622
54.7292
54.7022
54.6695
54.6397
54.5884
54.5123
54.4438
54.3969
54.3646
54.3399
54.3239
54.3421
54.3779
54.3998
54.3914
54.3640
54.3330
54.2926
54.2419
54.1971
54.1689
54.1276
54.740
53.9958
53.9281
53.8764
53.8311
53.7898
53.7619
53.7555
53.7593
53.7664
53.7574
53.7274
53.6777
53.6243
53.5771
53.5438
53.5153
53.4886
53.4647
53.4254
53.3583
53.2926
53.2489
53.2242
53.2098
53.2048
53.2409
53.3027
53.3619
53.3898
53.3946
53.3894
53.3850
53.3710
53.3616
53.3699
53.3793
53.3792
53.3617
53.3401
53.3412
53.3586
53.3762
53.4077
53.4551
53.5207
53.5918
53.6613
53.7108
53.7354
53.7517
53.7701
53.7974
53.8288
53.8591
53.8839
53.9042
53.8930
53.8691
53.8605
53.8707
53.8930
53.9118
53.9539
54.241
54.955
54.1380
54.1552
54.1562
54.1574
54.1418
54.1231
54.1198
54.1219
54.1117
54.799
54.423
54.237
54.127
54.35
54.79
54.229
54.577
54.962
54.1269
54.1341
54.1138
54.853
54.589
54.410
54.282
54.219
54.120
53.9989
53.9559
53.9035
53.8699
53.8600
53.8585
53.8665
53.9095
53.9791
54.565
54.1073
54.1329
54.1473
54.1638
54.1717
54.1760
54.2010
54.2286
54.2446
54.2450
54.2414
54.2568
54.2842
54.3148
54.3582
54.4225
54.5048
54.5864
54.6598
54.7112
54.7329
54.7456
54.7687
54.7998
54.8339
54.8659
54.8969
54.9144
54.9051
54.9002
54.9108
54.9410
54.9703
55.66
55.763
55.1653
55.2377
55.2755
55.2904
55.2972
55.2890
55.2710
55.2597
55.2586
55.2496
55.2259
55.1867
55.1651
55.1517
55.1422
55.1397
55.1552
55.1876
55.2220
55.2524
55.2624
55.2436
55.2130
55.1932
55.1825
55.1754
55.1728
55.1679
55.1579
55.1127
55.666
55.365
55.304
55.316
55.409
55.915
55.1655
55.2382
55.2745
55.2906
55.2968
55.3035
55.2995
55.3092
55.3370
55.3583
55.3663
55.3566
55.3582
55.3819
55.4095
55.4498
55.5025
55.5821
55.6674
55.7498
55.8111
55.8428
55.8591
55.8820
55.9149
55.9534
55.9857
56.161
56.375
56.249
56.82
56.97
56.291
56.484
56.749
56.1416
56.2227
56.2967
56.3302
56.3445
56.3534
56.3491
56.3355
56.3356
56.3416
56.3315
56.3029
56.2652
56.2452
56.2367
56.2257
56.2278
56.2448
56.2803
56.3151
56.3370
56.3361
56.3049
56.2764
56.2528
56.2371
56.2222
56.2123
56.2068
56.1708
56.1124
56.696
56.495
56.453
56.472
56.800
56.1489
56.2332
56.2835
56.3068
56.3234
56.3351
56.3356
56.3423
56.3628
56.3855
56.3947
56.3809
56.3772
56.3882
56.4096
56.4394
56.4866
56.5567
56.6332
56.7123
56.7726
56.8033
56.8155
56.8411
56.8739
56.9096
56.9421
56.9727
56.9919
56.9779
56.9680
56.9767
57.25
57.206
57.567
57.1294
57.2132
57.2691
57.2927
57.2966
57.2963
57.2802
57.2580
57.2539
57.2459
57.2245
57.1784
57.1443
57.1313
57.1212
57.1140
57.1223
57.1551
57.1942
57.2270
57.2374
57.2171
57.1804
57.1550
57.1325
57.1180
57.1036
57.910
57.656
57.71
56.9584
56.9292
56.9185
56.9106
56.9265
56.9824
57.527
57.1000
57.1118
57.1125
57.1148
57.1087
57.1044
57.1223
57.1450
57.1525
57.1383
57.1367
57.1540
57.1768
57.2053
57.2508
57.3198
57.3898
57.4605
57.5087
57.5256
57.5295
57.5478
57.5685
57.5936
57.6214
57.6468
57.6519
57.6297
57.6124
57.6197
57.6337
57.6479
57.6901
57.7628
57.8410
57.8865
57.9030
57.9100
57.9085
57.8874
57.8725
57.8689
57.8614
57.8326
57.7842
57.7565
57.7364
57.7178
57.7058
57.7136
57.7372
57.7609
57.7750
57.7615
57.7202
57.6853
57.6591
57.6401
57.6277
57.6147
57.6039
57.5600
57.5018
57.4618
57.4459
57.4346
57.4365
57.4785
57.5483
57.6116
57.6360
57.6435
57.6470
57.6416
57.6312
57.6333
57.6500
57.6597
57.6479
57.6271
57.6339
57.6464
57.6678
57.7017
57.7634
57.8326
57.9048
57.9655
57.9957
58.44
58.212
58.445
58.730
58.1018
58.1266
58.1431
58.1247
58.1055
58.1066
58.1226
58.1323
58.1624
58.2288
58.3054
58.3511
58.3647
58.3619
58.3570
58.3263
58.3028
58.2988
58.2847
58.2535
58.2042
58.1728
58.1562
58.1394
58.1297
58.1439
58.1745
58.2016
58.2229
58.2102
58.1736
58.1338
58.1020
58.779
58.564
58.366
58.198
57.9717
57.9109
57.8685
57.8486
57.8349
57.8332
57.8722
57.9416
58.46
58.222
58.321
58.354
58.323
58.216
58.277
58.441
58.519
58.352
58.230
58.379
58.557
58.828
58.1231
58.1892
58.2587
58.3291
58.3764
58.3966
58.4018
58.4130
58.4340
58.4545
58.4736
58.4983
58.4982
58.4720
58.4620
58.4715
58.4910
58.5086
58.5585
58.6381
58.7107
58.7514
58.7626
58.7650
58.7526
58.7220
58.7021
58.6939
58.6731
58.6254
58.5748
58.5450
58.5219
58.5033
58.4979
58.5182
58.5493
58.5790
58.5862
58.5647
58.5244
58.4919
58.4637
58.4419
58.4252
58.4090
58.3800
58.3196
58.2657
58.2360
58.2192
58.2076
58.2286
58.2893
58.3574
58.3921
58.3991
58.3967
58.3948
58.3805
58.3758
58.3936
58.4047
58.3972
58.3769
58.3785
58.3959
58.4159
58.4457
58.5010
58.5716
58.6463
58.7065
58.7389
58.7476
58.7631
58.7831
58.8077
58.8313
58.8531
58.8632
58.8348
58.8120
58.8088
58.8148
58.8159
58.8400
58.9036
58.9759
59.190
59.293
59.350
59.276
59.51
58.9885
58.9846
58.9726
58.9374
58.8894
58.8609
58.8404
58.8207
58.8070
58.8218
58.8462
58.8708
58.8806
58.8603
58.8152
58.7838
58.7527
58.7333
58.7158
58.6986
58.6728
58.6122
58.5546
58.5206
58.5051
58.4942
58.5109
58.5723
58.6440
58.6885
58.7015
58.7056
58.7108
58.6996
58.6963
58.7142
58.7257
58.7185
58.6981
58.6980
58.7080
58.7224
58.7472
58.7975
58.8648
58.9349
58.9894
59.186
59.255
59.409
59.589
59.855
59.1085
59.1350
59.1462
59.1189
59.965
59.995
59.1115
59.1189
59.1535
59.2266
59.2994
59.3410
59.3528
59.3502
59.3356
59.3041
59.2778
59.2624
59.2391
59.1899
59.1349
59.1013
59.798
59.588
59.493
59.696
59.985
59.1239
59.1347
59.1096
59.663
59.377
59.126
58.9923
58.9781
58.9649
58.9323
58.8660
58.8097
58.7744
58.7524
58.7352
58.7570
58.8181
58.8821
58.9111
58.9159
58.9176
58.9152
58.8976
58.9003
58.9153
58.9223
58.9078
58.8886
58.8951
58.9094
58.9285
58.9648
59.266
59.979
59.1703
59.2237
59.2419
59.2497
59.2639
59.2819
59.3031
59.3203
59.3384
59.3313
59.2940
59.2744
59.2788
59.2803
59.2907
59.3383
59.4127
59.4809
59.5104
59.5204
59.5249
59.5074
59.4785
59.4683
59.4578
59.4338
59.3785
59.3335
59.3050
59.2806
59.2573
59.2514
59.2703
59.2926
59.3117
59.3016
59.2648
59.2218
59.1880
59.1660
59.1481
59.1318
59.1150
59.639
58.9965
58.9491
58.9255
58.9082
58.9060
58.9523
59.259
59.852
59.1044
59.1100
59.1139
59.1036
59.956
59.1053
59.1161
59.1124
59.869
59.715
59.771
59.859
59.1043
59.1456
59.2112
59.2838
59.3513
59.3911
59.4068
59.4193
59.4410
59.4622
59.4839
59.5045
59.5197
59.4965
59.4696
59.4639
59.4715
59.4748
59.5015
59.5647
59.6410
59.6868
59.6982
59.6954
59.6871
59.6533
59.6304
59.6198
59.5973
59.5554
59.5052
59.4738
59.4508
59.4282
59.4214
59.4410
59.4697
59.4990
59.5097
59.4899
59.4514
59.4174
59.3898
59.3679
59.3430
59.3247
59.2822
59.2119
59.1512
59.1183
59.991
59.861
59.1112
59.1788
59.2445
59.2737
59.2799
59.2844
59.2796
59.2651
59.2683
59.2852
59.2907
59.2703
59.2527
59.2623
59.2749
59.2938
59.3293
59.3965
59.4677
59.5392
59.5819
59.5950
59.5984
59.6141
59.6327
59.6523
59.6692
59.6879
59.6696
59.6362
59.6260
59.6339
59.6460
59.6663
59.7306
59.8125
59.8757
59.8967
59.9003
59.8981
59.8710
59.8400
59.8297
59.8076
59.7708
59.7136
59.6740
59.6463
59.6216
59.6065
59.6157
59.6393
59.6680
59.6797
59.6635
59.6232
59.5899
59.5633
59.5427
59.5242
59.5050
59.4758
59.4117
59.3541
59.3186
59.2970
59.2818
59.3018
59.3636
59.4308
59.4645
59.4673
59.4656
59.4646
59.4479
59.4471
59.4600
59.4662
59.4474
59.4240
59.4267
59.4380
59.4550
59.4854
59.5454
59.6146
59.6846
59.7291
59.7503
59.7554
59.7708
59.7903
59.8125
59.8292
59.8455
59.8284
59.7915
59.7721
59.7734
59.7732
59.7793
59.8295
59.8996
59.9551
59.9682
59.9722
59.9688
59.9437
59.9149
59.9012
59.8850
59.8506
59.7942
59.7589
59.7324
59.7081
59.6912
59.6972
59.7183
59.7438
59.7557
59.7354
59.6901
59.6483
59.6147
59.5881
59.5661
59.5435
59.5087
59.4405
59.3756
59.3351
59.3121
59.2905
59.3077
59.3652
59.4352
59.4741
59.4827
59.4866
59.4848
59.4725
59.4730
59.4863
59.4914
59.4754
59.4518
59.4496
59.4555
59.4634
59.4923
59.5504
59.6184
59.6872
59.7371
59.7567
59.7652
59.7813
59.8077
59.8340
59.8547
59.8772
59.8671
59.8386
59.8242
59.8319
59.8384
59.8520
59.9073
59.9862
60.509
60.707
60.748
60.698
60.428
60.82
59.9904
59.9691
59.9305
59.8669
59.8236
59.7945
59.7700
59.7556
59.7602
59.7851
59.8111
59.8249
59.8115
59.7723
59.7386
59.7105
59.6889
59.6663
59.6497
59.6244
59.5576
59.4960
59.4583
59.4376
59.4188
59.4327
59.4893
59.5580
59.5897
59.5954
59.5946
59.5892
59.5691
59.5690
59.5807
59.5880
59.5713
59.5520
59.5581
59.5723
59.5931
59.6278
59.6925
59.7601
59.8321
59.8766
59.8988
59.9024
59.9207
59.9369
59.9551
59.9724
59.9929
59.9740
59.9382
59.9268
59.9298
59.9340
59.9461
59.9987
60.707
60.1286
60.1517
60.1607
60.1621
60.1385
60.1127
60.1058
60.866
60.500
59.9936
59.9551
59.9259
59.8923
59.8740
59.8783
59.8959
59.9170
59.9242
59.8986
59.8526
59.8164
59.7872
59.7647
59.7442
59.7260
59.6906
59.6210
59.5587
59.5202
59.4946
59.4766
59.4961
59.5593
59.6229
59.6503
59.6561
59.6598
59.6496
59.6344
59.6342
59.6405
59.6384
59.6086
59.5833
59.5837
59.5919
59.6041
59.6330
59.6945
59.7623
59.8259
59.8674
59.8800
59.8848
59.9011
59.9210
59.9384
59.9539
59.9699
59.9447
59.9094
59.8966
59.8988
59.8985
59.9113
59.9674
60.369
60.813
60.964
60.916
60.829
60.516
60.236
60.108
59.9895
59.9468
59.8922
59.8573
59.8322
59.8044
59.7915
59.8029
59.8269
59.8521
59.8601
59.8356
59.7901
59.7520
59.7244
59.6997
59.6799
59.6606
59.6168
59.5448
59.4854
59.4513
59.4261
59.4095
59.4402
59.5051
59.5679
59.5893
59.5901
59.5890
59.5838
59.5700
59.5762
59.5910
59.5929
59.5732
59.5607
59.5708
59.5857
59.6068
59.6460
59.7094
59.7776
59.8443
59.8806
59.8862
59.8879
59.8999
59.9167
59.9340
59.9510
59.9694
59.9502
59.9201
59.9159
59.9262
59.9315
59.9540
60.192
60.936
60.1386
60.1513
60.1485
60.1400
60.1117
60.856
60.712
60.520
60.64
59.9508
59.9124
59.8869
59.8601
59.8493
59.8611
59.8769
59.8948
59.8937
59.8628
59.8142
59.7787
59.7530
59.7304
59.7126
59.6982
59.6658
59.5990
59.5494
59.5237
59.5082
59.4993
59.5338
59.5971
59.6535
59.6700
59.6694
59.6652
59.6490
59.6326
59.6397
59.6535
59.6530
59.6243
59.6130
59.6210
59.6335
59.6499
59.6879
59.7505
59.8167
59.8778
59.9121
59.9182
59.9279
59.9485
59.9731
59.9936
60.137
60.249
59.9972
59.9708
59.9680
59.9728
59.9715
59.9945
60.521
60.1219
60.1567
60.1627
60.1581
60.1407
60.1086
60.889
60.835
60.653
60.203
59.9719
59.9435
59.9196
59.9003
59.8908
59.9076
59.9260
59.9422
59.9365
59.8993
59.8527
59.8124
59.7832
59.7603
59.7338
59.7151
59.6633
59.5950
59.5425
59.5126
59.4914
59.4845
59.5231
59.5904
59.6419
59.6579
59.6618
59.6628
59.6492
59.6347
59.6451
59.6566
59.6495
59.6218
59.6128
59.6196
59.6302
59.6481
59.6933
59.7557
59.8184
59.8762
59.9014
59.9018
59.9092
59.9266
59.9471
59.9665
59.9887
59.9980
59.9681
59.9464
59.9474
59.9547
59.9579
59.9937
60.623
60.1332
60.1621
60.1710
60.1663
60.1457
60.1110
60.937
60.774
60.525
59.9975
59.9468
59.9205
59.8934
59.8712
59.8655
59.8875
59.9127
59.9330
59.9269
59.8938
59.8529
59.8229
59.7946
59.7737
59.7569
59.7441
59.6906
59.6250
59.5812
59.5579
59.5396
59.5387
59.5808
59.6474
59.6914
59.6980
59.6958
59.6965
59.6802
59.6718
59.6849
59.6966
59.6934
59.6706
59.6723
59.6860
59.7017
59.7283
59.7792
59.8470
59.9156
59.9666
59.9882
59.9915
59.9978
60.153
60.361
60.521
60.746
60.736
60.428
60.213
60.217
60.285
60.331
60.736
60.1441
60.2082
60.2345
60.2354
60.2349
60.2143
60.1872
60.1794
60.1682
60.1462
60.932
60.524
60.260
59.9977
59.9751
59.9714
59.9845
60.20
60.98
59.9887
59.9452
59.9082
59.8808
59.8596
59.8409
59.8241
59.8021
59.7455
59.6869
59.6472
59.6257
59.6123
59.6212
59.6735
59.7398
59.7748
59.7803
59.7820
59.7777
59.7603
59.7580
59.7696
59.7780
59.7614
59.7361
59.7372
59.7421
59.7509
59.7774
59.8296
59.8887
59.9528
59.9970
60.139
60.199
60.385
60.615
60.887
60.1100
60.1352
60.1202
60.874
60.721
60.803
60.822
60.922
60.1443
60.2168
60.2713
60.2837
60.2814
60.2724
60.2416
60.2083
60.1946
60.1722
60.1348
60.753
60.359
60.91
59.9834
59.9667
59.9756
59.9954
60.204
60.248
60.5
59.9536
59.9186
59.8890
59.8638
59.8416
59.8243
59.7891
59.7229
59.6640
59.6276
59.6064
59.5868
59.6081
59.6650
59.7237
59.7463
59.7416
59.7397
59.7311
59.7155
59.7234
59.7396
59.7499
59.7324
59.7215
59.7323
59.7471
59.7647
59.8021
59.8602
59.9231
59.9853
60.172
60.190
60.215
60.359
60.530
60.730
60.907
60.1130
60.911
60.673
60.662
60.792
60.904
60.1144
60.1813
60.2543
60.2980
60.3080
60.3083
60.2984
60.2683
60.2445
60.2358
60.2192
60.1755
60.1242
60.931
60.662
60.421
60.265
60.388
60.576
60.751
60.707
60.387
59.9944
59.9591
59.9327
59.9101
59.8953
59.8838
59.8417
59.7783
59.7333
59.7120
59.6943
59.6892
59.7279
59.7932
59.8422
59.8540
59.8538
59.8502
59.8332
59.8232
59.8345
59.8442
59.8402
59.8156
59.8108
59.8241
59.8400
59.8664
59.9159
59.9826
60.512
60.1088
60.1354
60.1405
60.1514
60.1719
60.1939
60.2132
60.2363
60.2417
60.2135
60.1936
60.1930
60.1963
60.1957
60.2303
60.2949
60.3552
60.3780
60.3797
60.3748
60.3511
60.3195
60.3057
60.2962
60.2748
60.2230
60.1797
60.1572
60.1336
60.1162
60.1161
60.1344
60.1519
60.1647
60.1490
60.1035
60.630
60.286
60.2
59.9801
59.9587
59.9340
59.8690
59.8047
59.7592
59.7330
59.7126
59.7207
59.7697
59.8348
59.8719
59.8756
59.8739
59.8746
59.8636
59.8634
59.8786
59.8883
59.8733
59.8532
59.8530
59.8614
59.8762
59.9045
59.9561
60.174
60.804
60.1255
60.1404
60.1414
60.1549
60.1769
60.2012
60.2243
60.2448
60.2365
60.2061
60.1982
60.2104
60.2159
60.2276
60.2824
60.3557
60.4064
60.4219
60.4198
60.4121
60.3825
60.3526
60.3424
60.3269
60.2873
60.2343
60.1997
60.1739
60.1459
60.1279
60.1350
60.1547
60.1744
60.1770
60.1515
60.1066
60.693
60.426
60.241
60.76
59.9962
59.9585
59.8924
59.8398
59.8074
59.7839
59.7677
59.7973
59.8584
59.9130
59.9311
59.9287
59.9306
59.9200
59.9060
59.9120
59.9246
59.9304
59.9081
59.8986
59.9094
59.9231
59.9458
59.9865
60.503
60.1193
60.1809
60.2145
60.2178
60.2267
60.2430
60.2623
60.2842
60.3028
60.3118
60.2807
60.2507
60.2419
60.2440
60.2454
60.2721
60.3330
60.3993
60.4314
60.4356
60.4373
60.4240
60.3978
60.3834
60.3767
60.3582
60.3065
60.2638
60.2374
60.2138
60.1891
60.1821
60.1953
60.2151
60.2304
60.2156
60.1720
60.1292
60.975
60.712
60.520
60.349
60.184
59.9604
59.8968
59.8520
59.8249
59.8048
59.8026
59.8555
59.9246
59.9635
59.9723
59.9749
59.9731
59.9622
59.9598
59.9734
59.9776
59.9648
59.9358
59.9367
59.9424
59.9508
59.9738
60.263
60.890
60.1550
60.2039
60.2251
60.2294
60.2460
60.2675
60.2905
60.3089
60.3318
60.3179
60.2831
60.2676
60.2698
60.2726
60.2808
60.3325
60.4059
60.4586
60.4741
60.4759
60.4730
60.4456
60.4144
60.4010
60.3800
60.3385
60.2802
60.2429
60.2138
60.1882
60.1729
60.1823
60.2047
60.2277
60.2331
60.2091
60.1655
60.1273
60.998
60.765
60.554
60.362
59.9957
59.9241
59.8645
59.8284
59.8020
59.7831
59.8073
59.8633
59.9196
59.9352
59.9364
59.9379
59.9303
59.9156
59.9257
59.9394
59.9414
59.9168
59.9060
59.9139
59.9206
59.9411
59.9761
60.354
60.998
60.1571
60.1905
60.1942
60.2020
60.2225
60.2434
60.2663
60.2812
60.2920
60.2629
60.2327
60.2276
60.2334
60.2337
60.2603
60.3264
60.3940
60.4263
60.4341
60.4340
60.4212
60.3888
60.3742
60.3638
60.3415
60.2903
60.2381
60.2050
60.1697
60.1419
60.1260
60.1367
60.1543
60.1693
60.1587
60.1196
60.792
60.482
60.202
59.9997
59.9796
59.9638
59.9054
59.8365
59.7909
59.7655
59.7459
59.7442
59.7900
59.8585
59.8987
59.9049
59.9015
59.9012
59.8855
59.8747
59.8848
59.8892
59.8734
59.8442
59.8388
59.8458
59.8598
59.8859
59.9398
60.40
60.743
60.1269
60.1515
60.1576
60.1744
60.1982
60.2235
60.2430
60.2656
60.2580
60.2253
60.2028
60.2019
60.2014
60.1994
60.2419
60.3096
60.3648
60.3801
60.3812
60.3784
60.3541
60.3242
60.3090
60.2956
60.2629
60.2052
60.1657
60.1389
60.1136
60.972
60.997
60.1182
60.1359
60.1477
60.1296
60.835
60.478
60.193
59.9954
59.9734
59.9556
59.9183
59.8503
59.7888
59.7463
59.7242
59.7070
59.7271
59.7886
59.8531
59.8781
59.8845
59.8883
59.8843
59.8740
59.8814
59.8988
59.9050
59.8809
59.8623
59.8636
59.8731
59.8850
59.9172
59.9734
60.364
60.958
60.1339
60.1431
60.1476
60.1703
60.1912
60.2136
60.2303
60.2425
60.2169
60.1861
60.1748
60.1751
60.1782
60.1989
60.2591
60.3328
60.3734
60.3811
60.3798
60.3699
60.3362
60.3091
60.2952
60.2672
60.2149
60.1545
60.1200
60.914
60.645
60.512
60.677
60.856
60.1083
60.1044
60.711
60.304
59.9959
59.9719
59.9521
59.9315
59.9151
59.8658
59.7990
59.7512
59.7256
59.7038
59.6929
59.7284
59.7899
59.8362
59.8465
59.8418
59.8444
59.8290
59.8180
59.8322
59.8432
59.8425
59.8173
59.8118
59.8236
59.8365
59.8597
59.9073
59.9729
60.419
60.1018
60.1311
60.1318
60.1455
60.1640
60.1791
60.1923
60.2088
60.2034
60.1696
60.1415
60.1406
60.1427
60.1466
60.1840
60.2520
60.3178
60.3448
60.3495
60.3493
60.3257
60.2936
60.2781
60.2660
60.2392
60.1830
60.1392
60.1117
60.825
60.593
60.553
60.733
60.946
60.1055
60.878
60.425
59.9985
59.9662
59.9347
59.9124
59.8892
59.8606
59.7954
59.7289
59.6855
59.6627
59.6413
59.6492
59.7049
59.7748
59.8166
59.8269
59.8315
59.8335
59.8196
59.8187
59.8329
59.8375
59.8220
59.7979
59.7973
59.8035
59.8162
59.8403
59.8936
59.9507
60.160
60.600
60.797
60.851
60.1013
60.1218
60.1463
60.1683
60.1901
60.1816
60.1497
60.1381
60.1449
60.1514
60.1619
60.2134
60.2869
60.3388
60.3500
60.3458
60.3361
60.3062
60.2711
60.2552
60.2351
60.1987
60.1397
60.1053
60.801
60.541
60.383
60.462
60.663
60.893
60.981
60.778
60.340
59.9966
59.9682
59.9460
59.9218
59.9049
59.8674
59.7961
59.7348
59.6968
59.6717
59.6550
59.6777
59.7382
59.7995
59.8231
59.8245
59.8238
59.8116
59.7961
59.8024
59.8160
59.8194
59.7985
59.7865
59.7972
59.8132
59.8361
59.8774
59.9399
60.53
60.700
60.1046
60.1115
60.1164
60.1303
60.1464
60.1676
60.1830
60.1970
60.1698
60.1442
60.1399
60.1469
60.1533
60.1795
60.2448
60.3183
60.3570
60.3675
60.3682
60.3572
60.3260
60.3059
60.2957
60.2746
60.2246
60.1721
60.1401
60.1117
60.848
60.719
60.868
60.1030
60.1213
60.1142
60.793
60.367
60.21
59.9761
59.9545
59.9389
59.9257
59.8774
59.8143
59.7674
59.7435
59.7264
59.7189
59.7591
59.8248
59.8739
59.8814
59.8814
59.8797
59.8623
59.8498
59.8588
59.8672
59.8601
59.8302
59.8231
59.8313
59.8447
59.8693
59.9195
59.9852
60.530
60.1064
60.1324
60.1378
60.1481
60.1679
60.1925
60.2122
60.2337
60.2313
60.1973
60.1744
60.1731
60.1760
60.1781
60.2163
60.2816
60.3447
60.3679
60.3691
60.3668
60.3452
60.3150
60.3016
60.2881
60.2657
60.2117
60.1721
60.1478
60.1236
60.1034
60.1047
60.1278
60.1526
60.1678
60.1551
60.1142
60.736
60.423
60.170
59.9944
59.9744
59.9409
59.8732
59.8112
59.7692
59.7456
59.7295
59.7441
59.8042
59.8718
59.9031
59.9085
59.9128
59.9086
59.8969
59.9023
59.9181
59.9268
59.9161
59.8956
59.9014
59.9117
59.9289
59.9648
60.271
60.930
60.1556
60.1986
60.2081
60.2089
60.2202
60.2363
60.2532
60.2714
60.2908
60.2693
60.2434
60.2391
60.2488
60.2562
60.2764
60.3387
60.4135
60.4604
60.4706
60.4693
60.4566
60.4209
60.3920
60.3776
60.3537
60.3087
60.2509
60.2121
60.1827
60.1575
60.1417
60.1545
60.1774
60.1985
60.1990
60.1668
60.1207
60.840
60.525
60.295
60.55
59.9869
59.9401
59.8679
59.8156
59.7846
59.7627
59.7499
59.7852
59.8499
59.9029
59.9130
59.9134
59.9114
59.8963
59.8759
59.8819
59.8912
59.8881
59.8567
59.8498
59.8586
59.8724
59.8991
59.9477
60.150
60.828
60.1426
60.1707
60.1741
60.1832
60.2002
60.2179
60.2338
60.2495
60.2484
60.2147
60.1909
60.1869
60.1884
60.1901
60.2240
60.2910
60.3583
60.3884
60.3930
60.3908
60.3740
60.3425
60.3306
60.3166
60.2880
60.2318
60.1873
60.1584
60.1329
60.1108
60.1098
60.1293
60.1475
60.1627
60.1484
60.1042
60.617
60.290
60.5
59.9741
59.9520
59.9267
59.8627
59.8013
59.7580
59.7328
59.7171
59.7274
59.7808
59.8509
59.8890
59.8989
59.8992
59.8978
59.8814
59.8780
59.8909
59.8958
59.8770
59.8458
59.8441
59.8509
59.8614
59.8854
59.9421
60.85
60.737
60.1215
60.1356
60.1380
60.1559
60.1775
60.1979
60.2172
60.2365
60.2282
60.1971
60.1865
60.1976
60.2054
60.2197
60.2751
60.3483
60.3970
60.4132
60.4099
60.3960
60.3629
60.3317
60.3153
60.2946
60.2535
60.1949
60.1567
60.1332
60.1079
60.950
60.1092
60.1290
60.1517
60.1571
60.1344
60.905
60.539
60.214
59.9993
59.9788
59.9610
59.9208
59.8517
59.7964
59.7656
59.7451
59.7293
59.7539
59.8103
59.8675
59.8838
59.8848
59.8801
59.8702
59.8515
59.8578
59.8734
59.8750
59.8568
59.8484
59.8601
59.8748
59.8953
59.9402
60.48
60.705
60.1331
60.1668
60.1693
60.1745
60.1849
60.1979
60.2149
60.2305
60.2417
60.2109
60.1854
60.1822
60.1888
60.1905
60.2195
60.2854
60.3558
60.3907
60.3968
60.3943
60.3806
60.3444
60.3263
60.3148
60.2911
60.2407
60.1920
60.1643
60.1366
60.1109
60.960
60.1084
60.1233
60.1391
60.1248
60.850
60.371
59.9999
59.9711
59.9457
59.9255
59.9103
59.8583
59.7923
59.7510
59.7260
59.7071
59.7039
59.7480
59.8123
59.8576
59.8641
59.8561
59.8550
59.8365
59.8256
59.8364
59.8478
59.8391
59.8143
59.8117
59.8206
59.8302
59.8549
59.9055
59.9703
60.344
60.866
60.1081
60.1149
60.1324
60.1522
60.1755
60.1949
60.2132
60.2074
60.1721
60.1499
60.1495
60.1509
60.1508
60.1890
60.2540
60.3088
60.3255
60.3216
60.3120
60.2872
60.2541
60.2375
60.2182
60.1869
60.1306
60.889
60.667
60.404
60.204
60.204
60.396
60.591
60.712
60.546
60.123
59.9743
59.9432
59.9184
59.8909
59.8695
59.8346
59.7650
59.6971
59.6549
59.6257
59.6050
59.6180
59.6750
59.7461
59.7782
59.7856
59.7916
59.7913
59.7798
59.7826
59.8020
59.8064
59.7847
59.7658
59.7691
59.7781
59.7938
59.8233
59.8865
59.9528
60.183
60.609
60.763
60.832
60.941
60.1153
60.1330
60.1512
60.1701
60.1502
60.1204
60.1128
60.1231
60.1285
60.1471
60.2104
60.2847
60.3346
60.3502
60.3487
60.3394
60.3094
60.2805
60.2672
60.2477
60.2030
60.1462
60.1076
60.786
60.514
60.385
60.524
60.726
60.939
60.955
60.669
60.216
59.9843
59.9571
59.9389
59.9167
59.8991
59.8612
59.7949
59.7442
59.7127
59.6902
59.6786
59.7089
59.7725
59.8238
59.8395
59.8358
59.8327
59.8195
59.7994
59.8074
59.8177
59.8170
59.7922
59.7824
59.7913
59.8004
59.8228
59.8634
59.9278
59.9973
60.607
60.940
60.1021
60.1114
60.1306
60.1538
60.1742
60.1932
60.1994
60.1700
60.1386
60.1292
60.1332
60.1302
60.1536
60.2163
60.2881
60.3208
60.3294
60.3309
60.3178
60.2896
60.2702
60.2609
60.2419
60.1897
60.1416
60.1114
60.843
60.598
60.500
60.698
60.883
60.1076
60.997
60.595
60.141
59.9811
59.9538
59.9328
59.9093
59.8866
59.8307
59.7568
59.7071
59.6831
59.6642
59.6659
59.7153
59.7881
59.8361
59.8514
59.8571
59.8612
59.8498
59.8415
59.8516
59.8604
59.8484
59.8165
59.8118
59.8140
59.8251
59.8502
59.9041
59.9703
60.398
60.981
60.1208
60.1285
60.1407
60.1641
60.1886
60.2074
60.2297
60.2253
60.1894
60.1690
60.1745
60.1790
60.1854
60.2313
60.3038
60.3656
60.3855
60.3863
60.3819
60.3530
60.3206
60.3022
60.2829
60.2462
60.1864
60.1455
60.1188
60.947
60.760
60.862
60.1115
60.1362
60.1499
60.1330
60.909
60.528
60.246
60.50
59.9847
59.9669
59.9333
59.8641
59.7994
59.7599
59.7315
59.7101
59.7238
59.7825
59.8483
59.8768
59.8820
59.8847
59.8809
59.8669
59.8689
59.8838
59.8906
59.8729
59.8574
59.8660
59.8772
59.8976
59.9354
59.9995
60.696
60.1378
60.1812
60.1910
60.1972
60.2105
60.2325
60.2453
60.2588
60.2724
60.2429
60.2071
60.2009
60.2030
60.2042
60.2272
60.2934
60.3697
60.4154
60.4267
60.4292
60.4216
60.3913
60.3688
60.3541
60.3347
60.2887
60.2347
60.2040
60.1742
60.1442
60.1254
60.1369
60.1539
60.1682
60.1608
60.1214
60.722
60.346
60.43
59.9788
59.9555
59.9384
59.8923
59.8232
59.7702
59.7441
59.7226
59.7115
59.7491
59.8142
59.8673
59.8787
59.8767
59.8743
59.8575
59.8432
59.8524
59.8565
59.8514
59.8193
59.8128
59.8162
59.8233
59.8454
59.8891
59.9528
60.224
60.772
60.1074
60.1157
60.1291
60.1480
60.1709
60.1876
60.2096
60.2125
60.1789
60.1533
60.1535
60.1550
60.1578
60.1956
60.2617
60.3270
60.3534
60.3538
60.3496
60.3262
60.2905
60.2725
60.2576
60.2268
60.1708
60.1243
60.996
60.754
60.554
60.547
60.777
60.989
60.1180
60.1025
60.639
60.236
59.9895
59.9604
59.9332
59.9073
59.8743
59.8085
59.7365
59.6904
59.6593
59.6365
59.6430
59.6963
59.7667
59.8097
59.8194
59.8238
59.8214
59.8086
59.8062
59.8239
59.8296
59.8136
59.7868
59.7873
59.7978
59.8095
59.8373
59.8944
59.9598
60.275
60.745
60.925
60.954
60.1084
60.1272
60.1465
60.1634
60.1839
60.1659
60.1319
60.1154
60.1198
60.1265
60.1375
60.1952
60.2754
60.3363
60.3611
60.3660
60.3619
60.3396
60.3079
60.2937
60.2730
60.2330
60.1742
60.1352
60.1072
60.804
60.618
60.686
60.845
60.1058
60.1145
60.890
60.430
60.38
59.9768
59.9568
59.9390
59.9238
59.8870
59.8212
59.7658
59.7357
59.7114
59.6989
59.7276
59.7875
59.8502
59.8729
59.8718
59.8691
59.8588
59.8399
59.8435
59.8527
59.8542
59.8271
59.8130
59.8191
59.8285
59.8526
59.8963
59.9632
60.370
60.1025
60.1433
60.1488
60.1547
60.1737
60.1933
60.2113
60.2260
60.2354
60.2044
60.1703
60.1580
60.1597
60.1577
60.1806
60.2437
60.3153
60.3539
60.3653
60.3648
60.3517
60.3222
60.3027
60.2889
60.2666
60.2160
60.1634
60.1338
60.1049
60.809
60.685
60.855
60.1068
60.1257
60.1179
60.809
60.335
59.9955
59.9623
59.9335
59.9050
59.8828
59.8243
59.7524
59.7006
59.6747
59.6548
59.6525
59.6971
59.7675
59.8199
59.8344
59.8375
59.8407
59.8287
59.8154
59.8240
59.8286
59.8142
59.7843
59.7746
59.7805
59.7902
59.8162
59.8659
59.9344
60.10
60.565
60.846
60.894
60.1017
60.1186
60.1370
60.1532
60.1728
60.1748
60.1421
60.1225
60.1231
60.1310
60.1384
60.1831
60.2546
60.3182
60.3413
60.3426
60.3366
60.3092
60.2684
60.2466
60.2271
60.1975
60.1353
60.908
60.637
60.380
60.219
60.249
60.445
60.649
60.822
60.650
60.240
59.9843
59.9527
59.9265
59.9045
59.8856
59.8585
59.7953
59.7317
59.6918
59.6727
59.6551
59.6660
59.7192
59.7857
59.8189
59.8190
59.8137
59.8063
59.7865
59.7841
59.7967
59.8057
59.7932
59.7768
59.7860
59.8015
59.8236
59.8571
59.9177
59.9856
60.530
60.951
60.1069
60.1066
60.1154
60.1298
60.1453
60.1615
60.1787
60.1627
60.1303
60.1197
60.1241
60.1321
60.1468
60.2038
60.2776
60.3328
60.3485
60.3475
60.3407
60.3164
60.2881
60.2771
60.2601
60.2217
60.1667
60.1296
60.1009
60.752
60.572
60.624
60.794
60.970
60.941
60.583
60.77
59.9627
59.9291
59.9025
59.8774
59.8607
59.8245
59.7587
59.7080
59.6815
59.6644
59.6537
59.6821
59.7482
59.8077
59.8246
59.8240
59.8253
59.8118
59.7925
59.7953
59.8039
59.8026
59.7774
59.7614
59.7652
59.7746
59.7928
59.8297
59.8920
59.9577
60.218
60.555
60.635
60.694
60.905
60.1120
60.1322
60.1530
60.1667
60.1417
60.1174
60.1137
60.1207
60.1218
60.1412
60.1975
60.2640
60.2958
60.3005
60.2952
60.2738
60.2366
60.2124
60.1996
60.1734
60.1260
60.787
60.534
60.357
60.197
60.178
60.379
60.590
60.783
60.740
60.372
59.9907
59.9538
59.9258
59.8999
59.8784
59.8601
59.8075
59.7385
59.6901
59.6633
59.6424
59.6369
59.6817
59.7460
59.7989
59.8091
59.8117
59.8160
59.8045
59.7936
59.8065
59.8187
59.8126
59.7892
59.7828
59.7941
59.8064
59.8303
59.8761
59.9361
59.9995
60.533
60.787
60.775
60.829
60.1000
60.1184
60.1364
60.1567
60.1601
60.1302
60.1098
60.1153
60.1233
60.1272
60.1679
60.2383
60.3002
60.3277
60.3302
60.3236
60.3016
60.2668
60.2511
60.2338
60.2030
60.1449
60.1002
60.692
60.404
60.186
60.126
60.280
60.501
60.633
60.455
60.19
59.9577
59.9235
59.8998
59.8822
59.8666
59.8493
59.7955
59.7383
59.7023
59.6850
59.6697
59.6804
59.7319
59.7966
59.8287
59.8307
59.8262
59.8210
59.8025
59.7980
59.8106
59.8176
59.8051
59.7846
59.7897
59.8033
59.8188
59.8510
59.9085
59.9770
60.464
60.957
60.1127
60.1162
60.1329
60.1541
60.1765
60.1959
60.2159
60.2026
60.1668
60.1541
60.1573
60.1614
60.1753
60.2255
60.2978
60.3469
60.3599
60.3566
60.3516
60.3234
60.2953
60.2862
60.2696
60.2346
60.1791
60.1424
60.1123
60.833
60.687
60.801
60.982
60.1178
60.1174
60.879
60.367
59.9937
59.9612
59.9332
59.9103
59.8921
59.8551
59.7875
59.7301
59.6968
59.6746
59.6580
59.6862
59.7497
59.8073
59.8288
59.8330
59.8337
59.8238
59.8111
59.8162
59.8333
59.8329
59.8045
59.7872
59.7935
59.7972
59.8103
59.8433
59.9065
59.9697
60.296
60.670
60.746
60.819
60.1018
60.1223
60.1451
60.1619
60.1788
60.1563
60.1308
60.1307
60.1370
60.1433
60.1666
60.2258
60.2925
60.3261
60.3320
60.3293
60.3110
60.2743
60.2526
60.2428
60.2180
60.1692
60.1165
60.858
60.579
60.340
60.241
60.410
60.638
60.835
60.804
60.486
60.94
59.9789
59.9526
59.9350
59.9189
59.9039
59.8513
59.7828
59.7301
59.6997
59.6763
59.6662
59.7027
59.7633
59.8059
59.8109
59.8077
59.8066
59.7915
59.7816
59.7956
59.8093
59.8068
59.7847
59.7855
59.7962
59.8086
59.8338
59.8849
59.9492
60.147
60.669
60.900
60.915
60.997
60.1174
60.1392
60.1554
60.1775
60.1771
60.1438
60.1209
60.1162
60.1151
60.1160
60.1554
60.2257
60.2899
60.3190
60.3235
60.3290
60.3115
60.2827
60.2732
60.2635
60.2390
60.1847
60.1410
60.1124
60.841
60.611
60.531
60.662
60.835
60.957
60.745
60.285
59.9895
59.9610
59.9394
59.9189
59.9049
59.8807
59.8204
59.7599
59.7219
59.7009
59.6848
59.6991
59.7565
59.8272
59.8630
59.8720
59.8754
59.8735
59.8634
59.8614
59.8729
59.8802
59.8620
59.8383
59.8425
59.8491
59.8628
59.8923
59.9522
60.152
60.846
60.1329
60.1483
60.1583
60.1748
60.1995
60.2272
60.2496
60.2744
60.2607
60.2327
60.2244
60.2303
60.2345
60.2488
60.3028
60.3731
60.4176
60.4291
60.4227
60.4095
60.3771
60.3495
60.3355
60.3171
60.2737
60.2194
60.1890
60.1632
60.1413
60.1280
60.1450
60.1709
60.1981
60.2013
60.1749
60.1318
60.950
60.659
60.401
60.153
59.9956
59.9510
59.8803
59.8230
59.7895
59.7641
59.7491
59.7806
59.8437
59.8990
59.9128
59.9106
59.9107
59.8968
59.8828
59.8945
59.9091
59.9069
59.8831
59.8725
59.8840
59.8985
59.9194
59.9629
60.255
60.887
60.1435
60.1712
60.1704
60.1712
60.1883
60.2077
60.2246
60.2411
60.2497
60.2201
60.1955
60.1953
60.2060
60.2081
60.2433
60.3102
60.3824
60.4170
60.4238
60.4217
60.4001
60.3650
60.3443
60.3301
60.3034
60.2473
60.2012
60.1712
60.1423
60.1199
60.1125
60.1303
60.1471
60.1620
60.1458
60.1052
60.628
60.314
60.92
59.9914
59.9726
59.9538
59.8971
59.8354
59.7913
59.7679
59.7485
59.7503
59.8002
59.8663
59.9050
59.9067
59.9008
59.8965
59.8779
59.8694
59.8799
59.8839
59.8705
59.8433
59.8409
59.8489
59.8602
59.8851
59.9418
60.40
60.696
60.1169
60.1384
60.1466
60.1649
60.1886
60.2120
60.2269
60.2459
60.2319
60.1936
60.1721
60.1738
60.1729
60.1790
60.2272
60.2961
60.3519
60.3679
60.3685
60.3636
60.3377
60.3070
60.2951
60.2765
60.2405
60.1873
60.1513
60.1254
60.971
60.836
60.916
60.1152
60.1384
60.1482
60.1241
60.761
60.390
60.83
59.9837
59.9572
59.9359
59.8987
59.8305
59.7700
59.7349
59.7128
59.6976
59.7218
59.7875
59.8528
59.8787
59.8840
59.8894
59.8825
59.8691
59.8700
59.8787
59.8796
59.8548
59.8357
59.8387
59.8485
59.8610
59.8949
59.9578
60.217
60.852
60.1216
60.1300
60.1381
60.1540
60.1769
60.1957
60.2126
60.2282
60.2040
60.1764
60.1726
60.1796
60.1844
60.2061
60.2741
60.3475
60.3853
60.3946
60.3899
60.3704
60.3305
60.3009
60.2810
60.2509
60.1980
60.1432
60.1126
60.855
60.613
60.479
60.685
60.934
60.1116
60.1076
60.754
60.347
60.50
59.9774
59.9561
59.9351
59.9172
59.8626
59.7912
59.7451
59.7196
59.6961
59.6855
59.7242
59.7901
59.8375
59.8461
59.8421
59.8413
59.8232
59.8098
59.8192
59.8250
59.8196
59.7981
59.7952
59.8091
59.8257
59.8544
59.9037
59.9695
60.387
60.966
60.1212
60.1195
60.1258
60.1387
60.1548
60.1725
60.1872
60.1848
60.1478
60.1209
60.1242
60.1274
60.1286
60.1657
60.2343
60.3021
60.3307
60.3323
60.3314
60.3096
60.2793
60.2682
60.2598
60.2308
60.1785
60.1325
60.997
60.677
60.414
60.340
60.512
60.685
60.792
60.608
60.192
59.9797
59.9485
59.9246
59.9024
59.8840
59.8641
59.8015
59.7390
59.7016
59.6789
59.6632
59.6752
59.7304
59.8011
59.8375
59.8450
59.8474
59.8451
59.8291
59.8252
59.8382
59.8422
59.8244
59.7962
59.7951
59.7994
59.8127
59.8379
59.8907
59.9576
60.244
60.767
60.972
60.1058
60.1250
60.1528
60.1784
60.1964
60.2171
60.2005
60.1685
60.1561
60.1606
60.1643
60.1748
60.2307
60.3032
60.3543
60.3692
60.3672
60.3570
60.3274
60.2959
60.2811
60.2601
60.2175
60.1602
60.1221
60.916
60.660
60.531
60.648
60.861
60.1130
60.1198
60.973
60.515
60.164
59.9837
59.9593
59.9317
59.9088
59.8659
59.7904
59.7297
59.6970
59.6704
59.6498
59.6747
59.7351
59.7915
59.8138
59.8179
59.8206
59.8140
59.8001
59.8047
59.8192
59.8205
59.7948
59.7811
59.7873
59.7982
59.8174
59.8545
59.9163
59.9812
60.405
60.751
60.804
60.846
60.1029
60.1201
60.1378
60.1569
60.1649
60.1395
60.1060
60.997
60.1048
60.1074
60.1347
60.2003
60.2746
60.3148
60.3281
60.3307
60.3190
60.2887
60.2631
60.2494
60.2243
60.1712
60.1143
60.817
60.491
60.212
60.89
60.229
60.422
60.602
60.538
60.228
59.9795
59.9482
59.9223
59.9047
59.8894
59.8767
59.8308
59.7649
59.7195
59.6962
59.6789
59.6739
59.7155
59.7834
59.8290
59.8377
59.8347
59.8288
59.8115
59.7985
59.8059
59.8122
59.8043
59.7752
59.7668
59.7746
59.7861
59.8110
59.8607
59.9299
59.9982
60.554
60.838
60.862
60.984
60.1193
60.1394
60.1575
60.1762
60.1723
60.1406
60.1178
60.1164
60.1175
60.1203
60.1601
60.2290
60.2879
60.3130
60.3142
60.3117
60.2884
60.2568
60.2416
60.2306
60.2052
60.1501
60.1117
60.883
60.631
60.462
60.490
60.712
60.938
60.1101
60.960
60.544
60.160
59.9874
59.9585
59.9356
59.9135
59.8835
59.8194
59.7513
59.7063
59.6813
59.6623
59.6756
59.7323
59.8024
59.8404
59.8493
59.8550
59.8593
59.8467
59.8485
59.8655
59.8719
59.8523
59.8277
59.8306
59.8397
59.8535
59.8853
59.9457
60.102
60.792
60.1215
60.1366
60.1374
60.1518
60.1700
60.1892
60.2060
60.2258
60.2110
60.1812
60.1719
60.1824
60.1898
60.2070
60.2662
60.3414
60.3886
60.4051

END