=~=~=~=~=~=~=~=~=~=~=~= PuTTY log 2025.04.17 10:01:42 =~=~=~=~=~=~=~=~=~=~=~=




Speed (Hz)
59.6770
59.7044
59.7574
59.8059
59.8191
59.8169
59.8212
59.8133
59.8055
59.8140
59.8267
59.8226
59.7936
59.7852
59.7922
59.8059
59.8240
59.8603
59.9176
59.9807
60.388
60.730
60.809
60.947
60.1214
60.1502
60.1719
60.1879
60.1951
60.1624
60.1368
60.1370
60.1433
60.1412
60.1699
60.2302
60.2910
60.3192
60.3242
60.3263
60.3150
60.2893
60.2733
60.2590
60.2338
60.1768
60.1279
60.1018
60.839
60.653
60.583
60.709
60.838
60.976
60.860
60.465
60.109
59.9831
59.9558
59.9314
59.9095
59.8866
59.8233
59.7568
59.7141
59.6905
59.6700
59.6692
59.7116
59.7727
59.8108
59.8185
59.8202
59.8290
59.8238
59.8230
59.8415
59.8505
59.8361
59.8111
59.8115
59.8233
59.8371
59.8623
59.9112
59.9657
60.253
60.679
60.897
60.968
60.1197
60.1457
60.1713
60.1903
60.2119
60.2055
60.1773
60.1612
60.1706
60.1761
60.1831
60.2273
60.2949
60.3500
60.3671
60.3696
60.3688
60.3507
60.3194
60.3065
60.2878
60.2485
60.1902
60.1525
60.1281
60.1032
60.901
60.930
60.1102
60.1290
60.1390
60.1229
60.860
60.555
60.362
60.171
60.4
59.9844
59.9489
59.8820
59.8233
59.7901
59.7661
59.7469
59.7593
59.8106
59.8665
59.8887
59.8883
59.8945
59.8881
59.8755
59.8760
59.8876
59.8874
59.8632
59.8478
59.8539
59.8671
59.8882
59.9246
59.9820
60.421
60.1006
60.1377
60.1452
60.1558
60.1763
60.1971
60.2140
60.2244
60.2343
60.2032
60.1730
60.1664
60.1749
60.1805
60.1979
60.2534
60.3156
60.3519
60.3625
60.3665
60.3574
60.3313
60.3124
60.3019
60.2799
60.2330
60.1808
60.1548
60.1304
60.1047
60.892
60.939
60.1038
60.1079
60.960
60.545
60.77
59.9760
59.9475
59.9177
59.8935
59.8722
59.8224
59.7521
59.7028
59.6791
59.6622
59.6554
59.6905
59.7519
59.7994
59.8119
59.8152
59.8198
59.8069
59.7968
59.8085
59.8180
59.8110
59.7828
59.7758
59.7863
59.7980
59.8207
59.8652
59.9258
59.9875
60.443
60.713
60.793
60.989
60.1262
60.1546
60.1798
60.2004
60.2064
60.1781
60.1603
60.1666
60.1773
60.1808
60.2147
60.2769
60.3357
60.3583
60.3605
60.3599
60.3403
60.3073
60.2925
60.2767
60.2446
60.1876
60.1421
60.1180
60.991
60.856
60.835
60.990
60.1182
60.1289
60.1166
60.797
60.460
60.228
59.9973
59.9777
59.9590
59.9284
59.8608
59.7933
59.7476
59.7209
59.6954
59.6982
59.7433
59.8026
59.8347
59.8408
59.8458
59.8491
59.8384
59.8404
59.8551
59.8612
59.8460
59.8209
59.8261
59.8369
59.8524
59.8812
59.9360
59.9933
60.528
60.942
60.1044
60.1100
60.1249
60.1486
60.1692
60.1876
60.2062
60.1912
60.1560
60.1429
60.1509
60.1554
60.1667
60.2157
60.2830
60.3352
60.3554
60.3612
60.3626
60.3437
60.3217
60.3100
60.2902
60.2480
60.1923
60.1558
60.1315
60.1028
60.856
60.895
60.1013
60.1138
60.1112
60.838
60.405
60.71
59.9841
59.9634
59.9443
59.9270
59.8898
59.8250
59.7738
59.7463
59.7264
59.7088
59.7307
59.7819
59.8334
59.8491
59.8474
59.8501
59.8432
59.8271
59.8326
59.8391
59.8358
59.8062
59.7889
59.7965
59.8063
59.8255
59.8623
59.9176
59.9769
60.331
60.689
60.777
60.905
60.1149
60.1395
60.1629
60.1799
60.1866
60.1555
60.1190
60.1117
60.1164
60.1127
60.1290
60.1830
60.2439
60.2732
60.2782
60.2773
60.2666
60.2382
60.2181
60.2060
60.1799
60.1259
60.726
60.403
60.151
59.9907
59.9767
59.9859
59.9961
60.81
59.9993
59.9656
59.9216
59.8922
59.8675
59.8445
59.8209
59.7970
59.7391
59.6632
59.6111
59.5837
59.5660
59.5558
59.5919
59.6550
59.7040
59.7203
59.7260
59.7393
59.7368
59.7325
59.7501
59.7599
59.7536
59.7261
59.7189
59.7260
59.7400
59.7650
59.8115
59.8719
59.9355
59.9871
60.156
60.238
60.398
60.654
60.946
60.1196
60.1415
60.1436
60.1133
60.918
60.942
60.1019
60.1093
60.1453
60.2121
60.2753
60.3054
60.3174
60.3220
60.3118
60.2856
60.2760
60.2564
60.2258
60.1652
60.1151
60.860
60.619
60.396
60.391
60.540
60.716
60.861
60.802
60.458
60.129
59.9906
59.9708
59.9524
59.9280
59.9013
59.8390
59.7748
59.7341
59.7126
59.6904
59.6894
59.7324
59.7894
59.8204
59.8235
59.8255
59.8289
59.8192
59.8187
59.8339
59.8361
59.8160
59.7917
59.7960
59.8079
59.8257
59.8534
59.9066
59.9619
60.240
60.697
60.858
60.922
60.1142
60.1367
60.1577
60.1739
60.1856
60.1680
60.1282
60.1099
60.1123
60.1143
60.1215
60.1662
60.2320
60.2796
60.2992
60.3034
60.3047
60.2824
60.2560
60.2446
60.2255
60.1869
60.1286
60.859
60.613
60.338
60.175
60.217
60.324
60.443
60.451
60.186
59.9766
59.9425
59.9142
59.8922
59.8675
59.8460
59.8090
59.7395
59.6758
59.6432
59.6239
59.6082
59.6299
59.6857
59.7447
59.7680
59.7748
59.7822
59.7817
59.7708
59.7749
59.7829
59.7822
59.7522
59.7299
59.7314
59.7369
59.7532
59.7856
59.8377
59.8982
59.9579
59.9938
60.85
60.196
60.460
60.736
60.1005
60.1175
60.1319
60.1066
60.767
60.707
60.812
60.849
60.1039
60.1590
60.2266
60.2643
60.2722
60.2732
60.2653
60.2369
60.2137
60.2007
60.1736
60.1228
60.673
60.366
60.143
59.9907
59.9791
59.9945
60.116
60.301
60.259
59.9974
59.9607
59.9351
59.9129
59.8922
59.8721
59.8492
59.7979
59.7274
59.6737
59.6431
59.6236
59.6118
59.6409
59.7000
59.7509
59.7618
59.7651
59.7730
59.7689
59.7632
59.7760
59.7894
59.7867
59.7581
59.7544
59.7682
59.7854
59.8094
59.8531
59.9136
59.9751
60.251
60.557
60.578
60.693
60.960
60.1241
60.1455
60.1675
60.1711
60.1436
60.1210
60.1265
60.1378
60.1437
60.1744
60.2386
60.3036
60.3328
60.3410
60.3480
60.3405
60.3173
60.3050
60.2949
60.2702
60.2130
60.1627
60.1374
60.1119
60.928
60.857
60.954
60.1101
60.1175
60.1047
60.692
60.374
60.137
59.9933
59.9761
59.9595
59.9440
59.8885
59.8253
59.7893
59.7649
59.7452
59.7437
59.7913
59.8503
59.8886
59.8961
59.8983
59.9012
59.8900
59.8881
59.9029
59.9067
59.8851
59.8568
59.8547
59.8613
59.8755
59.8980
59.9489
60.48
60.662
60.1115
60.1325
60.1415
60.1664
60.1925
60.2190
60.2387
60.2610
60.2462
60.2084
60.1911
60.1925
60.1887
60.1909
60.2301
60.2920
60.3392
60.3531
60.3523
60.3509
60.3287
60.3072
60.2968
60.2765
60.2389
60.1796
60.1444
60.1208
60.904
60.704
60.700
60.798
60.893
60.893
60.669
60.219
59.9858
59.9573
59.9310
59.9068
59.8841
59.8431
59.7670
59.7035
59.6663
59.6382
59.6141
59.6295
59.6782
59.7368
59.7595
59.7648
59.7744
59.7783
59.7708
59.7835
59.8002
59.8020
59.7767
59.7574
59.7615
59.7708
59.7866
59.8175
59.8729
59.9329
59.9912
60.284
60.382
60.539
60.785
60.1050
60.1298
60.1498
60.1660
60.1429
60.1145
60.1089
60.1186
60.1219
60.1437
60.2012
60.2703
60.3092
60.3246
60.3337
60.3337
60.3050
60.2844
60.2727
60.2495
60.1950
60.1373
60.1030
60.789
60.520
60.380
60.505
60.636
60.804
60.781
60.488
60.131
59.9875
59.9660
59.9511
59.9298
59.9116
59.8582
59.7945
59.7424
59.7160
59.6932
59.6803
59.7088
59.7653
59.8075
59.8153
59.8173
59.8214
59.8110
59.8019
59.8138
59.8205
59.8132
59.7830
59.7727
59.7835
59.7971
59.8195
59.8604
59.9162
59.9780
60.334
60.609
60.654
60.837
60.1095
60.1322
60.1512
60.1682
60.1661
60.1304
60.1066
60.1098
60.1165
60.1181
60.1525
60.2163
60.2778
60.3049
60.3157
60.3252
60.3180
60.2962
60.2893
60.2829
60.2547
60.2013
60.1563
60.1272
60.1038
60.824
60.794
60.908
60.1032
60.1124
60.968
60.602
60.244
60.1
59.9784
59.9588
59.9358
59.9103
59.8470
59.7797
59.7403
59.7145
59.6927
59.6961
59.7427
59.8037
59.8392
59.8496
59.8565
59.8629
59.8538
59.8504
59.8636
59.8654
59.8448
59.8134
59.8132
59.8199
59.8326
59.8560
59.9014
59.9555
60.154
60.604
60.826
60.929
60.1155
60.1431
60.1688
60.1878
60.2069
60.1940
60.1604
60.1475
60.1537
60.1569
60.1656
60.2098
60.2723
60.3196
60.3316
60.3286
60.3249
60.3039
60.2758
60.2638
60.2403
60.1956
60.1353
60.996
60.769
60.511
60.363
60.410
60.555
60.712
60.753
60.537
60.128
59.9840
59.9619
59.9433
59.9267
59.9090
59.8681
59.7961
59.7355
59.7032
59.6825
59.6629
59.6837
59.7334
59.7903
59.8107
59.8172
59.8271
59.8313
59.8234
59.8343
59.8533
59.8557
59.8328
59.8232
59.8302
59.8493
59.8726
59.9106
59.9668
60.311
60.907
60.1311
60.1434
60.1550
60.1788
60.2009
60.2225
60.2378
60.2482
60.2236
60.1987
60.1963
60.2103
60.2146
60.2425
60.3040
60.3741
60.4112
60.4254
60.4320
60.4262
60.4003
60.3848
60.3769
60.3581
60.3095
60.2613
60.2343
60.2085
60.1875
60.1768
60.1886
60.2018
60.2109
60.1999
60.1592
60.1189
60.894
60.652
60.455
60.268
60.101
59.9567
59.8906
59.8491
59.8295
59.8089
59.8055
59.8445
59.9051
59.9460
59.9537
59.9511
59.9526
59.9397
59.9301
59.9411
59.9444
59.9293
59.8958
59.8874
59.8978
59.9080
59.9284
59.9700
60.274
60.916
60.1391
60.1648
60.1736
60.1926
60.2165
60.2402
60.2591
60.2766
60.2669
60.2300
60.2090
60.2106
60.2092
60.2093
60.2450
60.3076
60.3603
60.3732
60.3768
60.3736
60.3532
60.3245
60.3125
60.2977
60.2661
60.2089
60.1691
60.1446
60.1184
60.998
60.1004
60.1126
60.1260
60.1301
60.1102
60.654
60.277
59.9993
59.9706
59.9453
59.9223
59.8906
59.8242
59.7651
59.7299
59.7039
59.6860
59.6967
59.7472
59.8041
59.8269
59.8275
59.8341
59.8334
59.8204
59.8223
59.8349
59.8383
59.8167
59.7979
59.8011
59.8102
59.8271
59.8547
59.9070
59.9574
60.161
60.499
60.601
60.656
60.858
60.1096
60.1331
60.1499
60.1637
60.1402
60.1097
60.1027
60.1126
60.1170
60.1345
60.1845
60.2489
60.2904
60.3002
60.2966
60.2892
60.2611
60.2339
60.2254
60.2006
60.1531
60.946
60.625
60.393
60.174
60.14
60.87
60.200
60.362
60.351
60.93
59.9680
59.9394
59.9151
59.8960
59.8762
59.8598
59.8195
59.7543
59.7023
59.6803
59.6606
59.6452
59.6758
59.7311
59.7823
59.7934
59.7908
59.7949
59.7881
59.7755
59.7848
59.7939
59.7933
59.7677
59.7595
59.7696
59.7855
59.8113
59.8560
59.9132
59.9778
60.334
60.686
60.779
60.951
60.1255
60.1508
60.1730
60.1926
60.2018
60.1725
60.1462
60.1453
60.1530
60.1539
60.1833
60.2437
60.3076
60.3384
60.3468
60.3581
60.3511
60.3295
60.3173
60.3110
60.2913
60.2419
60.1995
60.1740
60.1496
60.1230
60.1143
60.1214
60.1328
60.1366
60.1200
60.804
60.405
60.142
59.9943
59.9757
59.9574
59.9388
59.8801
59.8143
59.7720
59.7528
59.7344
59.7342
59.7758
59.8361
59.8733
59.8770
59.8792
59.8824
59.8713
59.8687
59.8807
59.8886
59.8766
59.8498
59.8486
59.8571
59.8661
59.8876
59.9297
59.9801
60.376
60.825
60.979
60.1024
60.1220
60.1491
60.1742
60.1958
60.2198
60.2140
60.1857
60.1721
60.1794
60.1860
60.1875
60.2280
60.2889
60.3362
60.3491
60.3468
60.3460
60.3233
60.2933
60.2818
60.2611
60.2239
60.1673
60.1300
60.1060
60.817
60.649
60.610
60.732
60.867
60.886
60.670
60.237
59.9902
59.9690
59.9492
59.9281
59.9081
59.8725
59.8052
59.7401
59.7033
59.6755
59.6506
59.6606
59.7061
59.7550
59.7707
59.7680
59.7684
59.7695
59.7581
59.7632
59.7805
59.7872
59.7680
59.7521
59.7599
59.7747
59.7926
59.8266
59.8817
59.9413
59.9985
60.342
60.437
60.529
60.771
60.1007
60.1255
60.1444
60.1599
60.1376
60.1072
60.1018
60.1101
60.1131
60.1290
60.1830
60.2490
60.2905
60.3021
60.3083
60.3066
60.2870
60.2711
60.2634
60.2443
60.2036
60.1525
60.1183
60.909
60.635
60.473
60.528
60.665
60.760
60.715
60.394
59.9951
59.9699
59.9483
59.9331
59.9185
59.9063
59.8605
59.7930
59.7431
59.7155
59.6967
59.6869
59.7170
59.7746
59.8257
59.8401
59.8444
59.8506
59.8408
59.8325
59.8419
59.8507
59.8432
59.8127
59.7995
59.8062
59.8171
59.8347
59.8742
59.9305
59.9873
60.411
60.723
60.789
60.975
60.1253
60.1536
60.1796
60.2040
60.2123
60.1844
60.1642
60.1634
60.1682
60.1685
60.1910
60.2495
60.3108
60.3328
60.3380
60.3416
60.3310
60.3050
60.2915
60.2824
60.2610
60.2065
60.1621
60.1373
60.1137
60.917
60.878
60.970
60.1132
60.1257
60.1165
60.779
60.381
60.95
59.9855
59.9635
59.9429
59.9169
59.8548
59.7881
59.7466
59.7216
59.7020
59.7008
59.7436
59.8027
59.8380
59.8428
59.8447
59.8487
59.8391
59.8381
59.8555
59.8611
59.8459
59.8222
59.8222
59.8322
59.8477
59.8699
59.9156
59.9674
60.225
60.634
60.806
60.875
60.1027
60.1261
60.1519
60.1688
60.1867
60.1725
60.1391
60.1249
60.1323
60.1370
60.1438
60.1876
60.2546
60.3059
60.3235
60.3231
60.3228
60.2993
60.2688
60.2554
60.2344
60.1944
60.1332
60.897
60.622
60.358
60.186
60.163
60.298
60.429
60.459
60.241
59.9827
59.9507
59.9269
59.9070
59.8892
59.8717
59.8402
59.7748
59.7186
59.6893
59.6725
59.6588
59.6786
59.7277
59.7810
59.8000
59.8035
59.8055
59.8045
59.7946
59.7994
59.8108
59.8114
59.7884
59.7692
59.7829
59.7998
59.8212
59.8584
59.9167
59.9794
60.445
60.870
60.1041
60.1192
60.1459
60.1750
60.1993
60.2172
60.2339
60.2077
60.1769
60.1702
60.1793
60.1824
60.2004
60.2529
60.3179
60.3558
60.3687
60.3726
60.3626
60.3398
60.3255
60.3199
60.2982
60.2558
60.2063
60.1784
60.1587
60.1383
60.1256
60.1367
60.1489
60.1595
60.1494
60.1144
60.749
60.453
60.227
60.30
59.9811
59.9619
59.9077
59.8379
59.7909
59.7621
59.7405
59.7295
59.7624
59.8185
59.8628
59.8747
59.8767
59.8860
59.8801
59.8767
59.8893
59.8951
59.8871
59.8558
59.8432
59.8488
59.8536
59.8708
59.9106
59.9600
60.156
60.655
60.900
60.965
60.1154
60.1422
60.1681
60.1893
60.2056
60.2075
60.1745
60.1509
60.1517
60.1579
60.1578
60.1914
60.2525
60.3100
60.3320
60.3330
60.3313
60.3135
60.2822
60.2640
60.2457
60.2146
60.1528
60.1057
60.802
60.570
60.387
60.352
60.522
60.670
60.773
60.676
60.303
59.9950
59.9672
59.9440
59.9227
59.9022
59.8735
59.8074
59.7403
59.6955
59.6737
59.6512
59.6533
59.6965
59.7530
59.7840
59.7874
59.7900
59.7935
59.7809
59.7808
59.7959
59.8000
59.7808
59.7567
59.7576
59.7730
59.7871
59.8174
59.8695
59.9260
59.9874
60.312
60.488
60.538
60.722
60.971
60.1176
60.1343
60.1478
60.1299
60.904
60.731
60.759
60.779
60.857
60.1298
60.1917
60.2370
60.2521
60.2516
60.2520
60.2295
60.2033
60.1884
60.1691
60.1246
60.647
60.237
59.9976
59.9719
59.9461
59.9457
59.9572
59.9663
59.9670
59.9404
59.8974
59.8622
59.8362
59.8170
59.7942
59.7749
59.7418
59.6770
59.6179
59.5895
59.5696
59.5523
59.5704
59.6262
59.6864
59.7099
59.7147
59.7197
59.7149
59.7011
59.7042
59.7197
59.7224
59.6995
59.6771
59.6802
59.6900
59.7064
59.7372
59.7951
59.8543
59.9144
59.9565
59.9728
59.9888
60.176
60.525
60.793
60.1023
60.1211
60.1012
60.768
60.701
60.797
60.854
60.1008
60.1536
60.2186
60.2582
60.2698
60.2703
60.2664
60.2415
60.2211
60.2119
60.1891
60.1434
60.897
60.569
60.345
60.113
60.23
60.149
60.292
60.485
60.499
60.254
59.9898
59.9622
59.9346
59.9124
59.8903
59.8696
59.8148
59.7390
59.6816
59.6456
59.6208
59.6070
59.6348
59.6948
59.7484
59.7669
59.7713
59.7821
59.7807
59.7721
59.7837
59.7973
59.7903
59.7616
59.7490
59.7569
59.7706
59.7913
59.8311
59.8859
59.9468
60.3
60.306
60.375
60.481
60.678
60.918
60.1086
60.1229
60.1260
60.941
60.701
60.679
60.805
60.891
60.1215
60.1839
60.2502
60.2825
60.2902
60.2938
60.2842
60.2568
60.2399
60.2272
60.1944
60.1346
60.805
60.498
60.215
59.9970
59.9897
60.0
60.125
60.234
60.137
59.9741
59.9349
59.9079
59.8837
59.8637
59.8427
59.8208
59.7632
59.6960
59.6481
59.6223
59.6046
59.5937
59.6285
59.6869
59.7238
59.7312
59.7296
59.7299
59.7157
59.7055
59.7156
59.7168
59.7016
59.6713
59.6639
59.6781
59.6949
59.7214
59.7721
59.8295
59.8957
59.9456
59.9693
59.9780
59.9941
60.206
60.449
60.648
60.772
60.710
60.338
60.122
60.161
60.217
60.236
60.623
60.1262
60.1852
60.2093
60.2139
60.2175
60.2000
60.1778
60.1694
60.1568
60.1261
60.718
60.271
60.23
59.9780
59.9615
59.9570
59.9718
59.9871
59.9983
59.9853
59.9462
59.9124
59.8841
59.8600
59.8380
59.8151
59.7852
59.7217
59.6572
59.6217
59.6010
59.5866
59.5952
59.6475
59.7145
59.7491
59.7606
59.7685
59.7733
59.7615
59.7625
59.7749
59.7828
59.7618
59.7373
59.7392
59.7500
59.7650
59.7900
59.8418
59.9002
59.9606
60.77
60.236
60.325
60.541
60.819
60.1122
60.1311
60.1518
60.1380
60.1121
60.1050
60.1150
60.1246
60.1392
60.1890
60.2558
60.3093
60.3234
60.3231
60.3204
60.2966
60.2681
60.2559
60.2337
60.1927
60.1339
60.1002
60.763
60.560
60.401
60.479
60.668
60.851
60.914
60.776
60.405
60.115
59.9885
59.9699
59.9500
59.9352
59.8962
59.8297
59.7767
59.7427
59.7236
59.7042
59.7289
59.7857
59.8360
59.8498
59.8499
59.8534
59.8485
59.8373
59.8459
59.8598
59.8605
59.8346
59.8247
59.8349
59.8489
59.8721
59.9162
59.9746
60.363
60.930
60.1256
60.1344
60.1451
60.1650
60.1857
60.2038
60.2189
60.2257
60.1990
60.1692
60.1653
60.1724
60.1750
60.1959
60.2527
60.3163
60.3516
60.3601
60.3683
60.3637
60.3362
60.3198
60.3122
60.2887
60.2347
60.1825
60.1565
60.1311
60.1082
60.944
60.1031
60.1104
60.1175
60.1043
60.633
60.205
59.9886
59.9646
59.9450
59.9265
59.9068
59.8534
59.7918
59.7509
59.7318
59.7110
59.7097
59.7509
59.8147
59.8604
59.8733
59.8741
59.8780
59.8701
59.8629
59.8726
59.8810
59.8696
59.8406
59.8373
59.8500
59.8646
59.8923
59.9432
60.19
60.642
60.1189
60.1494
60.1567
60.1803
60.2085
60.2366
60.2548
60.2743
60.2676
60.2361
60.2178
60.2227
60.2299
60.2356
60.2770
60.3444
60.4003
60.4180
60.4188
60.4159
60.3951
60.3614
60.3436
60.3226
60.2858
60.2285
60.1921
60.1694
60.1497
60.1367
60.1395
60.1594
60.1800
60.1875
60.1713
60.1282
60.960
60.688
60.425
60.172
59.9925
59.9559
59.8834
59.8211
59.7829
59.7621
59.7403
59.7557
59.8052
59.8642
59.8883
59.8932
59.8976
59.8968
59.8813
59.8809
59.8957
59.8968
59.8718
59.8545
59.8632
59.8734
59.8914
59.9236
59.9794
60.343
60.892
60.1245
60.1322
60.1351
60.1523
60.1720
60.1880
60.2009
60.2135
60.1921
60.1593
60.1545
60.1621
60.1671
60.1847
60.2394
60.3059
60.3455
60.3571
60.3558
60.3467
60.3183
60.2933
60.2828
60.2603
60.2117
60.1541
60.1196
60.930
60.678
60.499
60.575
60.676
60.804
60.731
60.411
59.9977
59.9705
59.9474
59.9307
59.9098
59.8946
59.8529
59.7843
59.7354
59.7096
59.6891
59.6750
59.7008
59.7568
59.7987
59.8061
59.8036
59.8041
59.7929
59.7774
59.7869
59.7919
59.7853
59.7565
59.7459
59.7585
59.7711
59.7939
59.8350
59.8929
59.9537
60.87
60.402
60.484
60.623
60.858
60.1071
60.1259
60.1417
60.1458
60.1077
60.759
60.717
60.746
60.716
60.957
60.1498
60.2073
60.2336
60.2364
60.2346
60.2218
60.1929
60.1731
60.1590
60.1322
60.755
60.227
59.9906
59.9631
59.9410
59.9283
59.9396
59.9488
59.9561
59.9432
59.9051
59.8624
59.8278
59.8019
59.7785
59.7526
59.7284
59.6683
59.5962
59.5489
59.5255
59.5075
59.5047
59.5471
59.6108
59.6563
59.6696
59.6742
59.6850
59.6789
59.6758
59.6903
59.7012
59.6908
59.6578
59.6488
59.6575
59.6684
59.6915
59.7350
59.7914
59.8562
59.9060
59.9345
59.9455
59.9671
59.9956
60.233
60.470
60.731
60.745
60.442
60.253
60.336
60.443
60.539
60.956
60.1645
60.2247
60.2518
60.2585
60.2611
60.2477
60.2204
60.2084
60.1926
60.1603
60.997
60.528
60.263
59.9989
59.9827
59.9805
59.9965
60.161
60.297
60.189
59.9849
59.9552
59.9349
59.9201
59.9038
59.8833
59.8559
59.7898
59.7262
59.6847
59.6578
59.6362
59.6401
59.6887
59.7488
59.7785
59.7828
59.7829
59.7857
59.7784
59.7784
59.7944
59.7976
59.7809
59.7546
59.7569
59.7688
59.7856
59.8160
59.8725
59.9320
59.9967
60.443
60.604
60.679
60.861
60.1043
60.1258
60.1385
60.1512
60.1314
60.939
60.787
60.872
60.916
60.1012
60.1501
60.2190
60.2708
60.2875
60.2939
60.2970
60.2803
60.2562
60.2487
60.2314
60.1913
60.1355
60.992
60.745
60.499
60.323
60.325
60.432
60.548
60.537
60.269
59.9847
59.9498
59.9244
59.9019
59.8821
59.8607
59.8212
59.7523
59.6938
59.6611
59.6406
59.6242
59.6447
59.7024
59.7611
59.7805
59.7897
59.7963
59.7932
59.7811
59.7855
59.7966
59.7919
59.7614
59.7379
59.7404
59.7455
59.7594
59.7911
59.8503
59.9127
59.9722
60.128
60.263
60.420
60.692
60.966
60.1241
60.1440
60.1547
60.1266
60.953
60.843
60.924
60.930
60.1112
60.1632
60.2271
60.2657
60.2761
60.2800
60.2730
60.2449
60.2296
60.2208
60.1960
60.1471
60.942
60.643
60.352
60.131
60.4
60.106
60.273
60.438
60.419
60.165
59.9850
59.9576
59.9378
59.9190
59.8977
59.8760
59.8196
59.7473
59.6941
59.6671
59.6406
59.6285
59.6598
59.7163
59.7638
59.7759
59.7819
59.7950
59.7917
59.7877
59.8004
59.8124
59.8074
59.7827
59.7746
59.7819
59.7972
59.8202
59.8655
59.9275
59.9896
60.453
60.770
60.836
60.1009
60.1225
60.1474
60.1672
60.1863
60.1900
60.1595
60.1395
60.1446
60.1555
60.1638
60.2009
60.2689
60.3372
60.3649
60.3760
60.3844
60.3758
60.3498
60.3408
60.3294
60.3002
60.2395
60.1934
60.1639
60.1403
60.1196
60.1178
60.1318
60.1446
60.1551
60.1387
60.987
60.671
60.476
60.282
60.119
59.9924
59.9668
59.9050
59.8403
59.8013
59.7819
59.7618
59.7683
59.8166
59.8776
59.9116
59.9160
59.9173
59.9173
59.9028
59.9015
59.9147
59.9171
59.8984
59.8705
59.8713
59.8829
59.8987
59.9230
59.9732
60.291
60.896
60.1315
60.1488
60.1574
60.1802
60.2093
60.2368
60.2515
60.2689
60.2458
60.2098
60.1934
60.1954
60.1926
60.1971
60.2406
60.2986
60.3398
60.3522
60.3542
60.3521
60.3295
60.3082
60.2997
60.2868
60.2470
60.1914
60.1580
60.1317
60.1062
60.867
60.900
60.986
60.1101
60.1061
60.799
60.385
60.60
59.9801
59.9582
59.9349
59.9140
59.8710
59.7991
59.7402
59.7090
59.6886
59.6714
59.6941
59.7546
59.8066
59.8306
59.8377
59.8464
59.8455
59.8401
59.8526
59.8672
59.8684
59.8410
59.8291
59.8390
59.8489
59.8737
59.9104
59.9634
60.230
60.774
60.1076
60.1169
60.1304
60.1585
60.1860
60.2110
60.2327
60.2455
60.2187
60.1962
60.2013
60.2151
60.2188
60.2495
60.3087
60.3753
60.4076
60.4155
60.4204
60.4138
60.3842
60.3662
60.3520
60.3208
60.2614
60.2093
60.1819
60.1580
60.1370
60.1295
60.1434
60.1604
60.1723
60.1635
60.1311
60.955
60.733
60.486
60.299
60.97
59.9880
59.9296
59.8606
59.8153
59.7920
59.7682
59.7628
59.8007
59.8576
59.8932
59.9009
59.8986
59.9001
59.8881
59.8822
59.8960
59.9002
59.8850
59.8536
59.8499
59.8617
59.8746
59.8985
59.9451
60.32
60.632
60.1101
60.1270
60.1337
60.1534
60.1780
60.2021
60.2191
60.2398
60.2244
60.1870
60.1643
60.1635
60.1660
60.1680
60.2122
60.2777
60.3341
60.3564
60.3615
60.3649
60.3501
60.3251
60.3219
60.3114
60.2810
60.2250
60.1910
60.1687
60.1411
60.1224
60.1184
60.1308
60.1466
60.1484
60.1232
60.763
60.456
60.184
59.9978
59.9753
59.9540
59.9229
59.8549
59.7968
59.7615
59.7391
59.7190
59.7332
59.7858
59.8417
59.8684
59.8765
59.8843
59.8831
59.8735
59.8736
59.8829
59.8793
59.8501
59.8237
59.8227
59.8264
59.8421
59.8677
59.9199
59.9747
60.344
60.716
60.837
60.965
60.1222
60.1508
60.1758
60.1929
60.2065
60.1804
60.1445
60.1341
60.1365
60.1351
60.1483
60.1983
60.2580
60.2916
60.2994
60.2989
60.2929
60.2636
60.2398
60.2236
60.1996
60.1499
60.913
60.572
60.289
60.38
59.9840
59.9887
59.9997
60.143
60.117
59.9800
59.9416
59.9119
59.8883
59.8694
59.8437
59.8233
59.7765
59.7013
59.6445
59.6140
59.5903
59.5742
59.6022
59.6570
59.7070
59.7193
59.7252
59.7333
59.7343
59.7300
59.7455
59.7624
59.7612
59.7379
59.7350
59.7482
59.7661
59.7917
59.8349
59.8946
59.9560
60.137
60.423
60.467
60.650
60.907
60.1183
60.1385
60.1603
60.1689
60.1451
60.1251
60.1290
60.1393
60.1484
60.1827
60.2498
60.3163
60.3486
60.3589
60.3664
60.3557
60.3333
60.3226
60.3135
60.2865
60.2341
60.1872
60.1598
60.1299
60.1080
60.970
60.1074
60.1202
60.1281
60.1154
60.793
60.473
60.218
60.3
59.9824
59.9607
59.9417
59.8822
59.8213
59.7799
59.7579
59.7395
59.7359
59.7793
59.8434
59.8744
59.8741
59.8703
59.8695
59.8522
59.8450
59.8526
59.8529
59.8335
59.8032
59.8019
59.8114
59.8298
59.8553
59.9060
59.9632
60.231
60.672
60.863
60.921
60.1100
60.1363
60.1569
60.1769
60.1940
60.1795
60.1412
60.1237
60.1261
60.1282
60.1298
60.1725
60.2335
60.2849
60.3009
60.3035
60.3039
60.2841
60.2558
60.2428
60.2274
60.1904
60.1304
60.913
60.671
60.453
60.291
60.305
60.438
60.548
60.571
60.326
59.9903
59.9527
59.9240
59.8989
59.8757
59.8505
59.8136
59.7436
59.6854
59.6494
59.6296
59.6107
59.6264
59.6778
59.7370
59.7607
59.7675
59.7729
59.7734
59.7615
59.7679
59.7805
59.7805
59.7542
59.7315
59.7343
59.7451
59.7624
59.7911
59.8446
59.9017
59.9624
59.9979
60.70
60.173
60.408
60.635
60.853
60.982
60.1112
60.864
60.569
60.492
60.583
60.627
60.783
60.1321
60.1998
60.2408
60.2530
60.2555
60.2513
60.2274
60.2070
60.1913
60.1682
60.1168
60.559
60.172
59.9865
59.9598
59.9451
59.9537
59.9687
59.9887
59.9903
59.9642
59.9307
59.9053
59.8827
59.8645
59.8460
59.8275
59.7839
59.7162
59.6624
59.6333
59.6121
59.5965
59.6252
59.6790
59.7304
59.7451
59.7473
59.7511
59.7470
59.7385
59.7531
59.7700
59.7709
59.7469
59.7344
59.7445
59.7580
59.7796
59.8201
59.8779
59.9372
59.9971
60.338
60.425
60.594
60.897
60.1202
60.1470
60.1684
60.1776
60.1484
60.1229
60.1185
60.1235
60.1264
60.1514
60.2103
60.2769
60.3107
60.3224
60.3347
60.3310
60.3137
60.3028
60.2976
60.2735
60.2245
60.1744
60.1474
60.1253
60.1012
60.899
60.1015
60.1141
60.1242
60.1123
60.722
60.309
60.35
59.9793
59.9600
59.9421
59.9223
59.8677
59.8036
59.7614
59.7399
59.7235
59.7227
59.7647
59.8248
59.8664
59.8773
59.8779
59.8831
59.8762
59.8745
59.8886
59.8965
59.8792
59.8475
59.8424
59.8505
59.8611
59.8880
59.9340
59.9912
60.507
60.980
60.1244
60.1351
60.1559
60.1840
60.2087
60.2303
60.2518
60.2463
60.2110
60.1930
60.1992
60.2021
60.2056
60.2481
60.3109
60.3637
60.3819
60.3811
60.3795
60.3582
60.3255
60.3121
60.2924
60.2550
60.1952
60.1552
60.1288
60.1073
60.898
60.908
60.1055
60.1223
60.1258
60.1082
60.662
60.336
60.99
59.9862
59.9623
59.9413
59.9058
59.8391
59.7788
59.7425
59.7197
59.6942
59.7085
59.7563
59.8110
59.8323
59.8326
59.8341
59.8349
59.8198
59.8244
59.8406
59.8462
59.8287
59.8115
59.8210
59.8384
59.8597
59.8949
59.9519
60.143
60.738
60.1126
60.1226
60.1302
60.1511
60.1720
60.1932
60.2091
60.2245
60.2003
60.1710
60.1653
60.1736
60.1779
60.1953
60.2535
60.3237
60.3632
60.3749
60.3780
60.3722
60.3463
60.3246
60.3168
60.2944
60.2470
60.1936
60.1617
60.1340
60.1107
60.944
60.1043
60.1164
60.1267
60.1191
60.868
60.455
60.182
59.9987
59.9758
59.9580
59.9403
59.8934
59.8260
59.7787
59.7531
59.7323
59.7209
59.7536
59.8099
59.8553
59.8695
59.8681
59.8702
59.8571
59.8446
59.8548
59.8640
59.8579
59.8298
59.8210
59.8295
59.8439
59.8664
59.9082
59.9658
60.250
60.793
60.1107
60.1195
60.1381
60.1683
60.1947
60.2161
60.2355
60.2388
60.2084
60.1865
60.1861
60.1926
60.1971
60.2297
60.2918
60.3492
60.3718
60.3777
60.3806
60.3666
60.3385
60.3275
60.3165
60.2916
60.2368
60.1995
60.1773
60.1566
60.1389
60.1349
60.1493
60.1642
60.1735
60.1567
60.1137
60.762
60.472
60.252
60.25
59.9802
59.9500
59.8849
59.8174
59.7789
59.7551
59.7355
59.7366
59.7818
59.8391
59.8712
59.8779
59.8830
59.8865
59.8783
59.8804
59.8947
59.9014
59.8811
59.8566
59.8593
59.8698
59.8819
59.9082
59.9589
60.132
60.683
60.1106
60.1296
60.1347
60.1540
60.1804
60.2072
60.2257
60.2446
60.2304
60.1964
60.1842
60.1923
60.1964
60.2075
60.2589
60.3278
60.3762
60.3885
60.3914
60.3888
60.3628
60.3353
60.3214
60.2989
60.2528
60.1905
60.1545
60.1260
60.1024
60.836
60.877
60.1024
60.1165
60.1195
60.980
60.577
60.284
60.68
59.9897
59.9694
59.9483
59.9091
59.8380
59.7800
59.7489
59.7266
59.7086
59.7364
59.7898
59.8449
59.8618
59.8656
59.8718
59.8671
59.8577
59.8681
59.8794
59.8750
59.8500
59.8418
59.8546
59.8724
59.8965
59.9402
59.9998
60.659
60.1265
60.1645
60.1757
60.1930
60.2175
60.2391
60.2632
60.2797
60.2838
60.2545
60.2265
60.2246
60.2331
60.2311
60.2582
60.3174
60.3835
60.4162
60.4282
60.4349
60.4292
60.4061
60.3925
60.3846
60.3606
60.3099
60.2618
60.2318
60.2096
60.1885
60.1771
60.1901
60.2038
60.2147
60.2032
60.1653
60.1292
60.1018
60.786
60.558
60.305
60.19
59.9412
59.8763
59.8314
59.8084
59.7884
59.7866
59.8335
59.8977
59.9380
59.9496
59.9579
59.9639
59.9541
59.9497
59.9599
59.9576
59.9368
59.9013
59.8910
59.8938
59.9003
59.9210
59.9691
60.252
60.873
60.1380
60.1594
60.1675
60.1868
60.2131
60.2368
60.2552
60.2744
60.2599
60.2235
60.2049
60.2071
60.2109
60.2134
60.2549
60.3198
60.3667
60.3801
60.3792
60.3784
60.3549
60.3278
60.3155
60.2954
60.2536
60.1902
60.1496
60.1222
60.974
60.798
60.806
60.945
60.1084
60.1171
60.987
60.576
60.308
60.82
59.9862
59.9659
59.9407
59.8991
59.8268
59.7616
59.7228
59.6947
59.6723
59.6880
59.7368
59.7895
59.8060
59.8105
59.8164
59.8153
59.8025
59.8053
59.8185
59.8186
59.7913
59.7736
59.7772
59.7889
59.8063
59.8389
59.8967
59.9579
60.181
60.545
60.611
60.706
60.887
60.1100
60.1279
60.1407
60.1498
60.1190
60.854
60.711
60.767
60.736
60.871
60.1404
60.2034
60.2438
60.2541
60.2576
60.2517
60.2270
60.2047
60.1907
60.1623
60.1104
60.503
60.99
59.9798
59.9514
59.9322
59.9375
59.9458
59.9580
59.9507
59.9219
59.8832
59.8578
59.8387
59.8215
59.8017
59.7840
59.7362
59.6644
59.6087
59.5829
59.5629
59.5484
59.5774
59.6366
59.6863
59.6989
59.7066
59.7164
59.7128
59.7081
59.7187
59.7286
59.7265
59.6922
59.6767
59.6779
59.6876
59.7056
59.7429
59.8034
59.8645
59.9289
59.9637
59.9739
59.9937
60.231
60.520
60.805
60.983
60.1072
60.759
60.480
60.418
60.449
60.400
60.634
60.1225
60.1828
60.2167
60.2232
60.2316
60.2254
60.1993
60.1855
60.1750
60.1501
60.987
60.485
60.211
59.9976
59.9796
59.9704
59.9834
60.26
60.216
60.162
59.9817
59.9469
59.9183
59.8946
59.8736
59.8492
59.8220
59.7605
59.6869
59.6378
59.6133
59.5962
59.5909
59.6309
59.6953
59.7417
59.7565
59.7628
59.7718
59.7679
59.7659
59.7809
59.7906
59.7798
59.7510
59.7428
59.7511
59.7590
59.7784
59.8188
59.8727
59.9309
59.9841
60.93
60.186
60.368
60.641
60.881
60.1081
60.1239
60.1198
60.877
60.695
60.740
60.803
60.842
60.1263
60.1939
60.2525
60.2769
60.2855
60.2895
60.2744
60.2453
60.2278
60.2083
60.1708
60.1101
60.603
60.323
60.31
59.9809
59.9785
59.9947
60.130
60.211
60.92
59.9705
59.9384
59.9133
59.8894
59.8641
59.8457
59.8172
59.7507
59.6889
59.6489
59.6249
59.6011
59.6061
59.6479
59.7035
59.7270
59.7298
59.7296
59.7283
59.7130
59.7136
59.7281
59.7313
59.7092
59.6823
59.6859
59.6968
59.7151
59.7436
59.7983
59.8583
59.9201
59.9676
59.9853
59.9977
60.187
60.493
60.730
60.933
60.1104
60.961
60.614
60.491
60.536
60.592
60.640
60.1138
60.1805
60.2325
60.2480
60.2510
60.2523
60.2330
60.2068
60.2022
60.1830
60.1456
60.883
60.538
60.292
60.62
59.9923
59.9948
60.92
60.214
60.245
59.9984
59.9540
59.9184
59.8924
59.8678
59.8452
59.8251
59.7831
59.7153
59.6560
59.6251
59.6066
59.5955
59.6173
59.6734
59.7332
59.7561
59.7636
59.7726
59.7732
59.7596
59.7708
59.7827
59.7808
59.7538
59.7321
59.7365
59.7502
59.7694
59.8037
59.8600
59.9207
59.9853
60.212
60.331
60.483
60.740
60.995
60.1262
60.1465
60.1624
60.1411
60.1099
60.1054
60.1201
60.1245
60.1457
60.2040
60.2705
60.3112
60.3243
60.3273
60.3212
60.2955
60.2718
60.2589
60.2331
60.1845
60.1284
60.956
60.761
60.530
60.444
60.595
60.786
60.975
60.953
60.723
60.379
60.103
59.9876
59.9672
59.9441
59.9271
59.8723
59.8048
59.7533
59.7277
59.7058
59.6910
59.7204
59.7771
59.8226
59.8341
59.8348
59.8394
59.8311
59.8225
59.8380
59.8474
59.8415
59.8118
59.8034
59.8089
59.8206
59.8471
59.8888
59.9462
60.67
60.573
60.824
60.844
60.1029
60.1261
60.1476
60.1651
60.1834
60.1833
60.1446
60.1225
60.1222
60.1294
60.1350
60.1689
60.2333
60.2937
60.3196
60.3289
60.3305
60.3178
60.2918
60.2802
60.2664
60.2353
60.1743
60.1265
60.977
60.677
60.432
60.356
60.473
60.599
60.665
60.517
60.113
59.9783
59.9513
59.9327
59.9186
59.9033
59.8811
59.8257
59.7636
59.7236
59.7011
59.6813
59.6868
59.7336
59.7941
59.8265
59.8328
59.8406
59.8476
59.8421
59.8412
59.8578
59.8633
59.8469
59.8213
59.8211
59.8294
59.8452
59.8766
59.9311
59.9915
60.571
60.1087
60.1338
60.1486
60.1765
60.2040
60.2325
60.2580
60.2776
60.2641
60.2298
60.2209
60.2266
60.2306
60.2373
60.2839
60.3483
60.3948
60.4106
60.4113
60.4106
60.3861
60.3612
60.3539
60.3384
60.2985
60.2432
60.2115
60.1903
60.1669
60.1536
60.1630
60.1784
60.1963
60.1978
60.1771
60.1365
60.1081
60.836
60.622
60.379
60.136
59.9691
59.8949
59.8377
59.8071
59.7875
59.7715
59.7962
59.8545
59.9078
59.9243
59.9254
59.9329
59.9286
59.9156
59.9219
59.9340
59.9298
59.9042
59.8908
59.9014
59.9132
59.9303
59.9650
60.178
60.743
60.1257
60.1539
60.1562
60.1660
60.1873
60.2107
60.2308
60.2460
60.2530
60.2216
60.1996
60.1997
60.2081
60.2116
60.2398
60.2981
60.3655
60.3923
60.3979
60.4005
60.3884
60.3594
60.3387
60.3217
60.2909
60.2363
60.1846
60.1537
60.1268
60.1041
60.920
60.1065
60.1220
60.1334
60.1232
60.864
60.515
60.271
60.47
59.9861
59.9657
59.9436
59.8863
59.8196
59.7775
59.7543
59.7324
59.7294
59.7654
59.8210
59.8536
59.8590
59.8559
59.8568
59.8435
59.8339
59.8436
59.8481
59.8338
59.8033
59.8028
59.8134
59.8295
59.8569
59.9065
59.9622
60.216
60.707
60.913
60.945
60.1088
60.1279
60.1450
60.1611
60.1737
60.1559
60.1121
60.865
60.836
60.836
60.824
60.1159
60.1740
60.2250
60.2396
60.2387
60.2357
60.2128
60.1830
60.1677
60.1478
60.1113
60.515
60.109
59.9828
59.9562
59.9356
59.9317
59.9420
59.9489
59.9478
59.9205
59.8747
59.8368
59.8076
59.7812
59.7570
59.7340
59.7039
59.6358
59.5733
59.5355
59.5169
59.4966
59.5052
59.5592
59.6217
59.6547
59.6590
59.6673
59.6709
59.6598
59.6573
59.6710
59.6735
59.6490
59.6284
59.6314
59.6444
59.6598
59.6878
59.7423
59.7985
59.8589
59.9020
59.9235
59.9339
59.9574
59.9858
60.133
60.317
60.514
60.375
60.98
60.21
60.142
60.266
60.396
60.918
60.1632
60.2131
60.2280
60.2313
60.2256
60.1997
60.1718
60.1586
60.1396
60.965
60.405
60.34
59.9802
59.9564
59.9424
59.9486
59.9633
59.9840
59.9885
59.9678
59.9277
59.9011
59.8805
59.8612
59.8428
59.8268
59.7892
59.7215
59.6646
59.6330
59.6090
59.5868
59.6044
59.6567
59.7123
59.7336
59.7379
59.7409
59.7334
59.7217
59.7248
59.7384
59.7403
59.7182
59.7037
59.7144
59.7304
59.7521
59.7895
59.8494
59.9128
59.9728
60.78
60.164
60.264
60.462
60.700
60.879
60.1025
60.1176
60.927
60.606
60.555
60.636
60.658
60.818
60.1367
60.2030
60.2444
60.2561
60.2630
60.2607
60.2411
60.2229
60.2135
60.1902
60.1427
60.865
60.538
60.262
60.14
59.9860
59.9905
59.9989
60.129
60.79
59.9740
59.9337
59.9025
59.8764
59.8547
59.8333
59.8092
59.7608
59.6897
59.6377
59.6116
59.5897
59.5761
59.6041
59.6620
59.7101
59.7192
59.7175
59.7192
59.7115
59.7015
59.7099
59.7187
59.7102
59.6789
59.6618
59.6667
59.6747
59.6935
59.7304
59.7880
59.8495
59.9079
59.9419
59.9517
59.9667
59.9950
60.260
60.501
60.707
60.814
60.490
60.227
60.215
60.276
60.270
60.551
60.1141
60.1732
60.2036
60.2162
60.2211
60.2113
60.1823
60.1673
60.1573
60.1324
60.821
60.331
60.81
59.9887
59.9688
59.9620
59.9776
59.9935
60.95
60.25
59.9689
59.9368
59.9113
59.8874
59.8645
59.8425
59.8148
59.7559
59.6856
59.6331
59.6058
59.5804
59.5752
59.6110
59.6708
59.7151
59.7298
59.7384
59.7485
59.7443
59.7422
59.7607
59.7755
59.7666
59.7395
59.7374
59.7480
59.7600
59.7840
59.8301
59.8837
59.9446
59.9945
60.187
60.251
60.423
60.686
60.936
60.1124
60.1334
60.1322
60.997
60.855
60.923
60.1049
60.1142
60.1561
60.2260
60.2862
60.3113
60.3193
60.3239
60.3101
60.2840
60.2731
60.2570
60.2262
60.1677
60.1225
60.979
60.730
60.531
60.480
60.619
60.778
60.850
60.706
60.343
60.13
59.9864
59.9725
59.9570
59.9456
59.9189
59.8568
59.7962
59.7625
59.7401
59.7219
59.7288
59.7764
59.8309
59.8566
59.8598
59.8596
59.8628
59.8535
59.8578
59.8722
59.8778
59.8529
59.8339
59.8382
59.8507
59.8654
59.8897
59.9468
60.48
60.653
60.1081
60.1243
60.1380
60.1596
60.1876
60.2115
60.2309
60.2473
60.2222
60.1835
60.1663
60.1692
60.1692
60.1792
60.2281
60.2907
60.3323
60.3470
60.3498
60.3511
60.3335
60.3147
60.3087
60.2909
60.2458
60.1898
60.1581
60.1325
60.1078
60.892
60.932
60.1035
60.1167
60.1141
60.874
60.475
60.189
59.9940
59.9739
59.9509
59.9316
59.8837
59.8124
59.7570
59.7283
59.7023
59.6879
59.7167
59.7759
59.8312
59.8507
59.8587
59.8711
59.8724
59.8722
59.8842
59.8990
59.8949
59.8658
59.8509
59.8561
59.8655
59.8822
59.9210
59.9794
60.406
60.1015
60.1372
60.1474
60.1685
60.1960
60.2236
60.2491
60.2724
60.2823
60.2516
60.2230
60.2188
60.2273
60.2279
60.2558
60.3176
60.3813
60.4093
60.4172
60.4210
60.4078
60.3822
60.3681
60.3554
60.3220
60.2653
60.2120
60.1803
60.1534
60.1344
60.1252
60.1380
60.1515
60.1658
60.1602
60.1292
60.944
60.751
60.569
60.392
60.250
60.34
59.9394
59.8700
59.8259
59.8012
59.7768
59.7758
59.8176
59.8742
59.9044
59.9122
59.9112
59.9150
59.9037
59.9016
59.9185
59.9287
59.9156
59.8925
59.8965
59.9064
59.9193
59.9445
59.9940
60.450
60.1033
60.1470
60.1603
60.1667
60.1837
60.2079
60.2282
60.2440
60.2607
60.2440
60.2091
60.1934
60.1961
60.1990
60.2043
60.2513
60.3136
60.3643
60.3799
60.3822
60.3821
60.3659
60.3449
60.3363
60.3224
60.2850
60.2286
60.1926
60.1659
60.1388
60.1146
60.1136
60.1190
60.1281
60.1242
60.949
60.527
60.203
59.9972
59.9769
59.9569
59.9428
59.9071
59.8394
59.7856
59.7538
59.7347
59.7144
59.7329
59.7878
59.8427
59.8615
59.8601
59.8615
59.8555
59.8416
59.8442
59.8535
59.8486
59.8205
59.8023
59.8034
59.8106
59.8250
59.8598
59.9118
59.9665
60.240
60.621
60.713
60.877
60.1141
60.1425
60.1674
60.1843
60.1937
60.1648
60.1277
60.1130
60.1122
60.1111
60.1221
60.1723
60.2315
60.2597
60.2648
60.2655
60.2543
60.2256
60.2011
60.1886
60.1630
60.1114
60.550
60.212
59.9925
59.9645
59.9445
59.9528
59.9633
59.9753
59.9649
59.9317
59.8937
59.8672
59.8462
59.8239
59.8010
59.7761
59.7198
59.6447
59.5869
59.5519
59.5263
59.5112
59.5420
59.5991
59.6488
59.6609
59.6659
59.6771
59.6790
59.6767
59.6947
59.7084
59.7049
59.6785
59.6726
59.6796
59.6913
59.7123
59.7517
59.8100
59.8675
59.9239
59.9523
59.9619
59.9786
60.46
60.320
60.541
60.748
60.784
60.511
60.305
60.315
60.446
60.490
60.842
60.1485
60.2151
60.2479
60.2625
60.2717
60.2625
60.2393
60.2263
60.2144
60.1874
60.1258
60.751
60.437
60.197
59.9965
59.9863
59.9984
60.112
60.241
60.156
59.9822
59.9468
59.9258
59.9087
59.8909
59.8757
59.8570
59.8024
59.7377
59.6983
59.6724
59.6514
59.6459
59.6878
59.7441
59.7788
59.7866
59.7890
59.7940
59.7861
59.7837
59.7984
59.8070
59.7931
59.7625
59.7603
59.7689
59.7854
59.8100
59.8604
59.9165
59.9779
60.245
60.475
60.592
60.851
60.1127
60.1414
60.1621
60.1803
60.1691
60.1316
60.1087
60.1090
60.1084
60.1101
60.1500
60.2113
60.2633
60.2809
60.2868
60.2898
60.2785
60.2568
60.2494
60.2378
60.2052
60.1507
60.1083
60.829
60.578
60.374
60.329
60.422
60.529
60.552
60.339
59.9897
59.9586
59.9326
59.9086
59.8854
59.8635
59.8319
59.7605
59.6994
59.6628
59.6375
59.6153
59.6267
59.6760
59.7371
59.7633
59.7689
59.7759
59.7790
59.7702
59.7759
59.7920
59.7952
59.7720
59.7484
59.7499
59.7579
59.7692
59.7930
59.8437
59.8998
59.9617
60.32
60.173
60.292
60.540
60.823
60.1104
60.1327
60.1514
60.1361
60.1040
60.998
60.1070
60.1102
60.1239
60.1728
60.2368
60.2762
60.2929
60.2949
60.2950
60.2729
60.2501
60.2408
60.2205
60.1731
60.1152
60.790
60.550
60.290
60.96
60.160
60.293
60.442
60.464
60.217
59.9846
59.9591
59.9407
59.9243
59.9046
59.8897
59.8476
59.7769
59.7224
59.6907
59.6650
59.6450
59.6682
59.7173
59.7626
59.7773
59.7790
59.7886
59.7886
59.7809
59.7929
59.8071
59.8089
59.7807
59.7729
59.7831
59.7943
59.8183
59.8597
59.9170
59.9765
60.345
60.650
60.701
60.824
60.1071
60.1318
60.1537
60.1749
60.1872
60.1601
60.1365
60.1374
60.1446
60.1478
60.1739
60.2325
60.2990
60.3294
60.3398
60.3456
60.3380
60.3155
60.3066
60.3026
60.2826
60.2341
60.1896
60.1637
60.1368
60.1191
60.1082
60.1164
60.1246
60.1320
60.1201
60.779
60.437
60.195
59.9985
59.9804
59.9653
59.9477
59.8916
59.8302
59.7921
59.7738
59.7588
59.7544
59.7964
59.8542
59.8907
59.8960
59.8973
59.9027
59.8925
59.8892
59.9047
59.9106
59.8960
59.8655
59.8614
59.8682
59.8809
59.9031
59.9506
60.56
60.680
60.1134
60.1355
60.1438
60.1637
60.1897
60.2169
60.2408
60.2636
60.2540
60.2189
60.2009
60.2086
60.2154
60.2177
60.2558
60.3171
60.3652
60.3794
60.3788
60.3775
60.3540
60.3220
60.3094
60.2895
60.2525
60.1925
60.1520
60.1255
60.1014
60.844
60.884
60.1005
60.1161
60.1176
60.974
60.570
60.219
59.9989
59.9792
59.9579
59.9384
59.8992
59.8283
59.7649
59.7298
59.7065
59.6833
59.6947
59.7428
59.7957
59.8169
59.8164
59.8242
59.8204
59.8081
59.8161
59.8360
59.8422
59.8198
59.8070
59.8194
59.8339
59.8543
59.8856
59.9427
59.9999
60.579
60.953
60.1018
60.1109
60.1343
60.1591
60.1789
60.1993
60.2165
60.1919
60.1657
60.1628
60.1731
60.1777
60.1915
60.2473
60.3161
60.3563
60.3691
60.3733
60.3646
60.3426
60.3240
60.3153
60.2956
60.2471
60.1931
60.1585
60.1335
60.1082
60.926
60.983
60.1068
60.1171
60.1110
60.817
60.444
60.211
60.14
59.9890
59.9700
59.9530
59.9040
59.8376
59.7882
59.7632
59.7416
59.7301
59.7614
59.8153
59.8578
59.8640
59.8619
59.8625
59.8521
59.8411
59.8507
59.8587
59.8507
59.8203
59.8141
59.8268
59.8402
59.8643
59.9087
59.9659
60.283
60.814
60.1095
60.1147
60.1327
60.1586
60.1860
60.2019
60.2182
60.2167
60.1812
60.1556
60.1553
60.1586
60.1576
60.1873
60.2469
60.3049
60.3296
60.3353
60.3359
60.3219
60.2927
60.2810
60.2668
60.2381
60.1860
60.1448
60.1227
60.1041
60.856
60.821
60.981
60.1100
60.1167
60.997
60.576
60.200
59.9897
59.9639
59.9403
59.9151
59.8858
59.8187
59.7540
59.7126
59.6929
59.6734
59.6770
59.7217
59.7825
59.8180
59.8269
59.8349
59.8449
59.8397
59.8493
59.8752
59.8936
59.8920
59.8862
59.9110
59.9492
59.9963
60.618
60.1540
60.2563
60.3690
60.4657
60.5358
60.6060
60.6931
60.7914
60.8922
60.9880
61.900
61.1584
61.2221
61.3173
61.4269
61.5316
61.6607
61.8384
62.168
62.1614
62.2923
62.4215
62.5321
62.6361
62.7590
62.8799
62.9798
63.703
63.1868
63.3157
63.4464
63.5963
63.7734
63.9622
64.1488
64.3119
64.4541
64.6089
64.7724
64.9441
65.1156
65.2938
65.4323
65.5643
65.7225
65.8987
66.794
66.3136
66.5906
66.8507
67.740
67.3024
67.5247
67.7287
67.9661
68.2054
68.4246
68.6392
68.8879
69.1384
69.3979
69.6947
70.30
70.3110
70.5933
70.8523
71.1232
71.4011
71.6760
71.9589
72.2114
72.4315
72.6894
72.9488
73.2025
73.5187
73.8632
74.1589
74.4471
74.7255
74.9644
75.2245
75.4851
75.7124
75.9493
76.2045
76.4462
76.7103
77.57
77.3040
77.5743
77.8138
78.646
78.3248
78.5893
78.8711
79.1014
79.3260
79.5774
79.8238
80.1355
80.5030
80.8231
81.1214
81.4185
81.6850
81.9861
82.2784
82.5380
82.8384
83.1341
83.4395
83.7883
84.1503
84.4782
84.7885
85.1114
85.4356
85.7669
86.776
86.3399
86.6426
86.9113
87.2286
87.6183
87.9551
88.2798
88.5667
88.8348
89.1248
89.3805
89.6535
89.9353
90.1974
90.5132
90.8442
91.1495
91.4161
91.6954
91.9775
92.2881
92.5487
92.7869
93.433
93.2914
93.6634
94.266
94.3462
94.6631
94.9480
95.2730
95.5639
95.8723
96.1882
96.5000
96.8690
97.2416
97.5656
97.8915
98.2220
98.5577
98.8849
99.1697
99.4727
99.7359
100.1176
100.4930
100.8297
101.1317
101.4016
101.7021
101.9621
102.2598
102.5207
102.8162
103.1526
103.4596
103.7346
104.227
104.3196
104.6401
104.8856
105.1498
105.3925
105.7784
106.1400
106.4755
106.7707
107.811
107.4011
107.6977
108.242
108.3334
108.7112
109.868
109.4122
109.7594
110.926
110.4544
110.7369
111.377
111.2967
111.6976
112.596
112.4097
112.6790
112.9823
113.2613
113.5669
113.8319
114.1341
114.4866
114.7798
115.678
115.3540
115.6919
115.9533
116.2220
116.4578
116.8543
117.2192
117.5651
117.8479
118.1826
118.4770
118.8141
119.1138
119.4827
119.8577
120.1791
120.5166
120.8568
121.1977
121.5007
121.7650
122.1020
122.4931
122.8466
123.1165
123.4082
123.6864
123.9955
124.2488
124.5684
124.9090
125.1883
125.4737
125.7905
126.830
126.3492
126.5681
126.9536
127.3084
127.6519
127.9306
128.2669
128.5767
128.9067
129.2296
129.6203
129.9508
130.2966
130.6320
130.9839
131.2892
131.5325
131.9002
132.2766
132.6319
132.8939
133.1986
133.4937
133.7667
134.540
134.4051
134.6887
134.9747
135.3047
135.5906
135.8571
136.892
136.5076
136.8565
137.1610
137.4739
137.7786
138.1143
138.4091
138.7932
139.1264
139.4670
139.8016
140.1407
140.4499
140.6775
141.799
141.4352
141.7224
141.9970
142.2794
142.5833
142.8390
143.1874
143.4739
143.7527
144.680
144.3591
144.6112
144.8539
145.2645
145.6063
145.8704
146.1945
146.5130
146.8139
147.1562
147.5137
147.8382
148.1496
148.4996
148.8028
149.255
149.4218
149.7771
150.521
150.3358
150.6209
150.9052
151.1798
151.5223
151.8007
152.663
152.4178
152.6884
152.8899
153.2992
153.6518
153.9311
154.2519
154.5718
154.8808
155.2311
155.5896
155.9249
156.2535
156.5970
156.9011
157.1584
157.5619
157.9152
158.1559
158.4506
158.7797
159.294
159.3829
159.6716
159.9349
160.2817
160.5624
160.7568
161.1742
161.5307
161.7972
162.1136
162.4567
162.7451
163.1244
163.4489
163.7673
164.1356
164.4484
164.6687
165.743
165.4464
165.6906
165.9800
166.3058
166.5469
166.9000
167.1913
167.4528
167.8023
168.821
168.2799
168.6979
169.484
169.3006
169.6249
169.9791
170.2851
170.6547
170.9869
171.3022
171.6365
171.9143
172.2256
172.6077
172.8946
173.1671
173.4918
173.7327
174.743
174.3667
174.6244
174.9765
175.2570
175.4802
175.8949
176.2319
176.5104
176.8408
177.1596
177.5193
177.8598
178.1811
178.5475
178.8751
179.922
179.5001
179.8476
180.821
180.3955
180.6740
180.9932
181.2977
181.5584
181.9095
182.1911
182.4143
182.8265
183.1482
183.4375
183.7814
184.737
184.4547
184.7855
185.864
185.4395
185.7257
186.478
186.4407
186.6872
186.9628
187.3047
187.5606
187.9005
188.1782
188.5070
188.8106
189.21
189.4309
189.7765
190.514
190.3996
190.6998
191.844
191.4247
191.7339
192.903
192.3382
192.7099
193.1002
193.3164
193.6269
193.9208
194.2387
194.5497
194.8043
195.1574
195.3986
195.7371
196.1252
196.3730
196.6955
197.412
197.3774
197.7146
198.118
198.3732
198.6546
198.9809
199.3733
199.5860
199.8891
200.1846
200.4972
200.8052
201.563
201.4135
201.6237
202.121
202.3812
202.6254
202.9750
203.2756
203.6556
203.9922
204.3148
204.6566
204.8572
205.2703
205.5944
205.8314
206.1814
206.4174
206.7549
207.149
207.3592
207.6222
207.9196
208.3211
208.5630
208.9012
209.2150
209.5786
209.9201
210.2383
210.5866
210.7833
211.1964
211.4956
211.7387
212.853
212.3437
212.6727
212.9204
213.2778
213.4705
213.8641
214.2238
214.4785
214.8422
215.1188
215.4815
215.7881
216.1320
216.4094
216.7294
217.1193
217.3109
217.6485
217.8709
218.2196
218.4833
218.8134
219.685
219.3809
219.7714
220.10
220.3564
220.6331
221.15
221.3154
221.6502
221.9260
222.2404
222.6269
222.8196
223.1702
223.3882
223.7327
223.9745
224.3274
224.5291
224.9164
225.2691
225.5235
225.8990
226.1932
226.5464
226.8385
227.2097
227.4031
227.8235
228.958
228.3600
228.6641
228.9737
229.2740
229.5688
229.8722
230.1197
230.5300
230.7564
231.1173
231.3905
231.7498
232.498
232.4087
232.6208
233.85
233.3212
233.5547
233.8812
234.1715
234.4740
234.7546
235.620
235.3148
235.7279
235.9518
236.3226
236.5952
236.9565
237.2415
237.6130
237.7974
238.2243
238.4579
238.7669
239.110
239.3508
239.6064
239.9493
240.1395
240.5420
240.8619
241.1316
241.4807
241.8182
242.1490
242.4572
242.7446
243.462
243.4106
243.5965
243.9387
244.2015
244.5137
244.7941
245.852
245.3686
245.7457
245.9630
246.3446
246.6463
246.9907
247.2828
247.6116
247.8640
248.2498
248.4213
248.7858
249.359
249.3467
249.6270
249.9121
250.2147
250.5836
250.8165
251.1942
251.5103
251.8467
252.1509
252.4210
252.7471
253.733
253.2960
253.5958
253.9144
254.1716
254.5117
254.6898
255.1201
255.3867
255.7243
256.56
256.3671
256.6595
257.467
257.2252
257.6717
257.8491
258.2215
258.4390
258.7781
259.426
259.3612
259.6349
260.90
260.2385
260.6053
260.9331
261.2498
261.5899
261.7945
262.2145
262.4425
262.7881
263.47
263.3578
263.6112
263.9681
264.2026
264.6017
264.8121
265.1959
265.5126
265.8216
266.1512
266.3502
266.7770
266.9829
267.3380
267.5484
267.8942
268.1546
268.4699
268.7512
269.975
269.3368
269.6600
270.5
270.2817
270.6669
270.8446
271.2855
271.4191
271.7838
272.310
272.3027
272.6146
272.7922
273.2385
273.4648
273.8456
274.1097
274.4588
274.7183
274.9992
275.3195
275.5823
275.8854
276.970
276.4429
276.6857
277.82
277.2698
277.6057
277.8635
278.1668
278.5126
278.7951
279.1661
279.3586
279.7307
279.8940
280.1822
280.4969
280.7222
281.1031
281.3068
281.7014
281.8943
282.2363
282.5599
282.8364
283.2212
283.4044
283.8013
283.9491
284.2535
284.5659
284.8013
285.1842
285.3915
285.7836
286.0
286.3335
286.6834
286.9675
287.3449
287.5546
287.9185
288.1374
288.3886
288.7450
288.9915
289.3201
289.6070
289.9093
290.2345
290.5090
290.8883
291.1483
291.4104
291.7702
291.9854
292.3451
292.5494
292.8567
293.1264
293.2898
293.7487
293.9075
294.2740
294.5264
294.7751
295.1114
295.2531
295.6251
295.7019
295.9548
296.2211
296.3995
296.6761
296.8604
297.810
297.3312
297.5183
297.7938
297.9479
298.756
298.3860
298.4428
298.7050
298.8140
298.9349
299.1813
299.2345
299.5349
299.5634
299.7706
299.9625
300.865
300.2796
300.3602
300.4712
300.6227
300.6695
300.8414
300.9221
300.9313
301.2118
301.2100
301.4220
301.5104
301.5871
301.7841
301.7652
301.9559
301.9351
301.9881
302.1282
302.1593
302.2220
302.3740
302.3934
302.5679
302.6039
302.7070
302.8001
302.7543
302.9741
302.8430
302.9414
303.181
303.166
303.1361
303.1481
303.2015
303.3064
303.3360
303.4538
303.4573
303.4091
303.6091
303.4895
303.6094
303.6054
303.5790
303.7253
303.6723
303.7922
303.7979
303.8303
303.9473
303.9426
303.9310
304.644
303.9901
304.1061
304.568
304.467
304.1556
304.727
304.2359
304.1502
304.2057
304.2883
304.2915
304.3296
304.3437
304.3045
304.3797
304.3058
304.3344
304.3675
304.2549
304.4436
304.3141
304.3960
304.4274
304.4291
304.5049
304.4252
304.4326
304.4480
304.3660
304.4217
304.3893
304.2724
304.4570
304.3413
304.4408
304.4312
304.4183
304.5130
304.3998
304.4659
304.3923
304.3284
304.3859
304.3261
304.2473
304.3664
304.2840
304.3816
304.3357
304.3228
304.3896
304.2710
304.3930
304.2323
304.2160
304.2543
304.2022
304.2101
304.2424
304.1959
304.2786
304.2388
304.2785
304.2855
304.1731
304.3341
304.1395
304.1813
304.1871
304.1224
304.1993
304.1463
304.1585
304.1959
304.1729
304.2401
304.1949
304.1005
304.2511
304.827
304.1567
304.1101
304.335
304.1337
304.400
304.1175
304.578
304.542
304.1219
304.714
304.322
304.1044
303.9939
304.674
303.9752
303.9336
303.9916
303.8678
304.14
303.8712
303.9086
303.9458
303.9195
303.9519
303.8998
303.8422
303.8772
303.7784
303.7962
303.7827
303.6508
303.8232
303.6757
303.7553
303.7552
303.7198
303.8054
303.6969
303.7353
303.6960
303.6206
303.6752
303.6152
303.5326
303.6781
303.5873
303.6920
303.6637
303.6506
303.7280
303.6150
303.7265
303.5775
303.5555
303.5994
303.5401
303.5395
303.5812
303.5321
303.6161
303.5765
303.6127
303.6158
303.5055
303.6630
303.4550
303.4996
303.4987
303.4285
303.5030
303.4411
303.4572
303.4797
303.4530
303.5200
303.4678
303.3826
303.5207
303.3647
303.4437
303.3776
303.3065
303.4066
303.3046
303.4070
303.3222
303.3310
303.3968
303.3646
303.3529
303.3826
303.2961
303.3560
303.2639
303.2586
303.2870
303.1618
303.3220
303.1802
303.2497
303.2795
303.2584
303.3230
303.2477
303.2442
303.2481
303.1679
303.2139
303.1621
303.563
303.2195
303.949
303.1884
303.1658
303.1383
303.2254
303.1025
303.2000
303.810
303.400
303.953
303.325
303.35
303.782
303.205
303.1159
303.749
303.993
303.1248
303.122
303.1658
302.9719
303.103
303.268
302.9689
303.352
302.9903
303.25
303.471
303.296
303.1012
303.580
302.9750
303.1257
302.9730
303.522
303.35
302.9390
303.476
302.9528
303.563
302.9836
302.9992
303.737
303.363
303.270
303.631
302.9788
303.421
302.9487
302.9415
302.9759
302.8605
303.233
302.8812
302.9522
302.9852
302.9646
303.304
302.9492
302.9462
302.9499
302.8710
302.9118
302.8562
302.7572
302.9212
302.8050
302.9004
302.8759
302.8491
302.9373
302.8191
302.9123
302.7809
302.7503
302.7968
302.7380
302.7231
302.7844
302.7227
302.8131
302.7799
302.8142
302.8257
302.7178
302.8819
302.6797
302.7304
302.7361
302.6716
302.7539
302.6982
302.7214
302.7444
302.7294
302.7988
302.7496
302.6755
302.7990
302.6524
302.7296
302.6596
302.5874
302.6677
302.5598
302.6647
302.5576
302.5799
302.6255
302.5915
302.6030
302.5855
302.5140
302.5647
302.4711
302.4788
302.4633
302.3322
302.5038
302.3515
302.4382
302.4380
302.4006
302.4873
302.3774
302.4201
302.3625
302.2930
302.3457
302.2760
302.2102
302.3411
302.2562
302.3567
302.3173
302.3134
302.3708
302.2579
302.3886
302.2113
302.2290
302.2549
302.1867
302.2258
302.2025
302.1792
302.2345
302.2065
302.2546
302.2118
302.1172
302.2601
302.772
302.1490
302.990
302.106
302.1008
301.9990
302.766
301.9939
302.1
302.585
302.117
302.78
302.286
301.9444
302.93
301.9193
301.9132
301.9270
301.8052
301.9722
301.8183
301.9005
301.9221
301.8957
301.9761
301.8727
301.8994
301.8615
301.7955
301.8426
301.7769
301.7024
301.8371
301.7414
301.8405
301.8057
301.7938
301.8493
301.7411
301.8730
301.6875
301.7005
301.7276
301.6687
301.7184
301.7012
301.6857
301.7402
301.7199
301.7838
301.7473
301.6667
301.8131
301.6487
301.7309
301.6918
301.6129
301.7187
301.6259
301.7307
301.6427
301.6620
301.7244
301.6934
301.7066
301.7230
301.6500
301.7184
301.6336
301.6528
301.6557
301.5382
301.7184
301.5684
301.6625
301.6711
301.6394
301.7382
301.6351
301.6877
301.6313
301.5694
301.6336
301.5696
301.5127
301.6372
301.5642
301.6606
301.6292
301.6365
301.6809
301.5729
301.7226
301.5214
301.5484
301.5662
301.4989
301.5526
301.5088
301.5061
301.5311
301.5060
301.5626
301.5023
301.4225
301.5456
301.3930
301.4621
301.3907
301.3179
301.4030
301.2899
301.4044
301.2813
301.3144
301.3590
301.3325
301.3686
301.3336
301.2827
301.3226
301.2427
301.2755
301.2437
301.1414
301.3208
301.1907
301.2973
301.2947
301.2720
301.3737
301.2677
301.3616
301.2459
301.2198
301.2731
301.2174
301.2138
301.2756
301.2243
301.3206
301.2889
301.3349
301.3286
301.2257
301.3888
301.1929
301.2597
301.2416
301.1717
301.2660
301.1874
301.2451
301.2218
301.2242
301.2967
301.2465
301.2219
301.3031
301.1984
301.2782
301.1975
301.1812
301.2231
301.1098
301.2711
301.1277
301.2010
301.2362
301.2161
301.2910
301.2047
301.2222
301.2108
301.1443
301.1991
301.1490
301.709
301.2249
301.1407
301.2470
301.2231
301.2249
301.3014
301.1956
301.3317
301.1625
301.1804
301.2210
301.1701
301.2138
301.2041
301.1989
301.2663
301.2551
301.3287
301.2924
301.2165
301.3701
301.2097
301.2977
301.2539
301.1870
301.2956
301.2005
301.3097
301.2215
301.2525
301.3122
301.2852
301.3067
301.3065
301.2404
301.2997
301.2116
301.2349
301.2283
301.1129
301.2926
301.1596
301.2508
301.2591
301.2363
301.3398
301.2293
301.3041
301.2199
301.1772
301.2391
301.1797
301.1481
301.2318
301.1666
301.2619
301.2357
301.2613
301.2795
301.1788
301.3397
301.1413
301.1977
301.2018
301.1358
301.2198
301.1542
301.1895
301.1900
301.1809
301.2491
301.1955
301.1530
301.2590
301.1341
301.2080
301.1342
301.948
301.1584
301.483
301.1980
301.584
301.1190
301.1628
301.1463
301.2091
301.1347
301.1223
301.1318
301.517
301.974
301.462
300.9432
301.1029
300.9924
301.918
301.657
301.424
301.1208
301.110
301.1247
300.9525
300.9508
300.9867
300.9287
300.9521
300.9453
300.9180
300.9831
300.9517
301.76
300.9674
300.8781
301.297
300.8601
300.9371
300.8936
300.8233
300.9222
300.8222
300.9282
300.8421
300.8638
300.9259
300.9013
300.9121
300.9096
300.8485
300.9040
300.8162
300.8347
300.8121
300.6915
300.8675
300.7275
300.8157
300.8099
300.7780
300.8694
300.7594
300.8327
300.7204
300.6793
300.7331
300.6655
300.6372
300.7046
300.6493
300.7311
300.6929
300.7300
300.7208
300.6141
300.7828
300.5910
300.6582
300.6402
300.5707
300.6701
300.5878
300.6566
300.6207
300.6239
300.7029
300.6576
300.6383
300.6983
300.6014
300.6724
300.5847
300.5764
300.5986
300.4815
300.6562
300.5069
300.5922
300.6145
300.5849
300.6760
300.5716
300.6094
300.5541
300.4884
300.5444
300.4785
300.4246
300.5383
300.4604
300.5613
300.5293
300.5491
300.5820
300.4786
300.6375
300.4469
300.4976
300.5145
300.4576
300.5431
300.4964
300.5365
300.5557
300.5531
300.6326
300.5877
300.5494
300.6617
300.5530
300.6452
300.5720
300.5413
300.6078
300.5066
300.6661
300.5332
300.6081
300.6528
300.6379
300.7120
300.6362
300.6418
300.6372
300.5676
300.6229
300.5726
300.4948
300.6517
300.5608
300.6650
300.6396
300.6324
300.7056
300.6037
300.7354
300.5610
300.5779
300.6067
300.5479
300.5910
300.5608
300.5512
300.5996
300.5830
300.6478
300.6002
300.5300
300.6716
300.5203
300.6007
300.5413
300.4793
300.5696
300.4685
300.5899
300.4732
300.5176
300.5714
300.5484
300.5878
300.5462
300.5079
300.5422
300.4631
300.5016
300.4667
300.3677
300.5377
300.4243
300.5300
300.5156
300.4880
300.5854
300.4846
300.5914
300.4380
300.4410
300.4851
300.4365
300.4674
300.4799
300.4496
300.5331
300.5116
300.5679
300.5384
300.4563
300.6167
300.4517
300.5393
300.5020
300.4328
300.5527
300.4693
300.5741
300.4963
300.5327
300.6043
300.5842
300.6090
300.6162
300.5615
300.6351
300.5558
300.5869
300.5885
300.4844
300.6764
300.5490
300.6648
300.6748
300.6516
300.7682
300.6753
300.7703
300.6756
300.6511
300.7173
300.6698
300.6654
300.7498
300.7103
300.8193
300.8026
300.8576
300.8709
300.7839
300.9626
300.7809
300.8635
300.8696
300.8067
300.9151
300.8543
300.9234
300.9133
300.9295
301.151
300.9794
300.9640
301.583
300.9648
301.522
300.9845
300.9715
301.234
300.9262
301.990
300.9691
301.590
301.1006
301.980
301.1877
301.1110
301.1397
301.1406
301.836
301.1476
301.1018
301.355
301.1968
301.1168
301.2290
301.2111
301.2092
301.2931
301.1935
301.3283
301.1567
301.1808
301.2240
301.1740
301.2273
301.2182
301.2114
301.2779
301.2651
301.3392
301.3052
301.2293
301.3833
301.2272
301.3117
301.2724
301.2116
301.3206
301.2374
301.3470
301.2621
301.2985
301.3628
301.3346
301.3550
301.3546
301.2927
301.3467
301.2615
301.2834
301.2688
301.1493
301.3221
301.1768
301.2604
301.2502
301.2021
301.2859
301.1625
301.2196
301.1122
301.517
301.974
301.214
300.9768
301.450
300.9729
301.534
301.81
301.274
301.239
300.9110
301.671
300.8562
300.9064
300.9026
300.8229
300.9050
300.8305
300.8750
300.8515
300.8409
300.9155
300.8644
300.8262
300.9094
300.8009
300.8773
300.7988
300.7705
300.8196
300.7080
300.8693
300.7225
300.7990
300.8307
300.8078
300.8870
300.7983
300.8142
300.7964
300.7228
300.7714
300.7001
300.6240
300.7674
300.6756
300.7673
300.7336
300.7255
300.7796
300.6673
300.8069
300.6192
300.6403
300.6665
300.6026
300.6598
300.6240
300.6301
300.6676
300.6540
300.7232
300.6698
300.6019
300.7319
300.5924
300.6789
300.6218
300.5708
300.6584
300.5619
300.6999
300.5783
300.6340
300.6841
300.6650
300.7187
300.6763
300.6513
300.6765
300.5985
300.6424
300.6041
300.5089
300.6765
300.5692
300.6718
300.6550
300.6315
300.7131
300.6067
300.7194
300.5627
300.5556
300.5972
300.5389
300.5589
300.5664
300.5383
300.6069
300.5816
300.6342
300.5986
300.5074
300.6637
300.4933
300.5675
300.5297
300.4619
300.5617
300.4651
300.5691
300.4791
300.5108
300.5716
300.5398
300.5628
300.5532
300.4949
300.5555
300.4728
300.5035
300.4845
300.3776
300.5599
300.4331
300.5344
300.5331
300.5091
300.6136
300.5017
300.5920
300.4841
300.4581
300.5155
300.4553
300.4492
300.5041
300.4623
300.5581
300.5345
300.5922
300.5850
300.4928
300.6628
300.4735
300.5536
300.5422
300.4742
300.5814
300.5042
300.5940
300.5522
300.5710
300.6486
300.6177
300.6214
300.6753
300.5963
300.6784
300.6020
300.6105
300.6339
300.5333
300.7183
300.5809
300.6882
300.7131
300.6940
300.7964
300.7041
300.7646
300.7092
300.6572
300.7246
300.6622
300.6154
300.7335
300.6634
300.7641
300.7325
300.7519
300.7753
300.6677
300.8233
300.6239
300.6707
300.6739
300.6058
300.6851
300.6170
300.6505
300.6535
300.6331
300.7005
300.6405
300.5962
300.6877
300.5653
300.6392
300.5575
300.5166
300.5693
300.4493
300.5898
300.4356
300.4890
300.5048
300.4666
300.5251
300.4215
300.4185
300.3966
300.3087
300.3503
300.2758
300.1917
300.3206
300.2167
300.3059
300.2649
300.2553
300.3044
300.1813
300.3126
300.1178
300.1433
300.1553
300.855
300.1439
300.926
300.1044
300.1269
300.1055
300.1737
300.1188
300.636
300.1786
300.544
300.1361
300.671
300.281
300.947
299.9899
300.1398
300.124
300.888
300.1373
300.1233
300.1954
300.1261
300.1384
300.1397
300.792
300.1387
300.875
300.122
300.1653
300.846
300.1911
300.1732
300.1819
300.2594
300.1575
300.3118
300.1411
300.1762
300.2175
300.1745
300.2433
300.2153
300.2359
300.2855
300.2874
300.3792
300.3399
300.2867
300.4307
300.3156
300.4096
300.3542
300.3173
300.4188
300.3354
300.4882
300.3787
300.4467
300.5089
300.5111
300.5807
300.5374
300.5313
300.5654
300.4957
300.5550
300.5201
300.4361
300.6175
300.5283
300.6476
300.6430
300.6364
300.7342
300.6354
300.7648
300.6174
300.6268
300.6776
300.6362
300.6763
300.6932
300.6746
300.7556
300.7436
300.8127
300.7820
300.7009
300.8599
300.6982
300.7805
300.7450
300.6783
300.7781
300.6851
300.7955
300.7115
300.7389
300.8047
300.7720
300.7862
300.7913
300.7303
300.7872
300.6954
300.7203
300.7010
300.5805
300.7574
300.6177
300.7118
300.7012
300.6689
300.7607
300.6415
300.7178
300.6041
300.5575
300.6033
300.5269
300.5000
300.5568
300.4862
300.5571
300.5119
300.5419
300.5224
300.4070
300.5518
300.3472
300.4078
300.3825
300.2965
300.3810
300.2869
300.3533
300.2950
300.2975
300.3587
300.3130
300.3004
300.3386
300.2524
300.3142
300.2175
300.2298
300.2341
300.1162
300.2976
300.1559
300.2509
300.2629
300.2370
300.3349
300.2288
300.2971
300.2185
300.1774
300.2399
300.1812
300.1572
300.2481
300.1939
300.2991
300.2724
300.3086
300.3215
300.2276
300.3970
300.2033
300.2769
300.2686
300.2013
300.3058
300.2323
300.2981
300.2803
300.2920
300.3736
300.3344
300.3262
300.4009
300.3096
300.3948
300.3224
300.3202
300.3592
300.2601
300.4419
300.3042
300.4024
300.4366
300.4226
300.5280
300.4440
300.4920
300.4494
300.4042
300.4697
300.4149
300.3769
300.5089
300.4412
300.5495
300.5268
300.5475
300.5946
300.5021
300.6581
300.4703
300.5230
300.5415
300.4846
300.5694
300.5181
300.5494
300.5698
300.5723
300.6489
300.6033
300.5629
300.6795
300.5608
300.6459
300.5776
300.5491
300.6203
300.5200
300.6831
300.5561
300.6286
300.6759
300.6669
300.7455
300.6767
300.6845
300.6971
300.6363
300.6960
300.6566
300.5801
300.7430
300.6563
300.7734
300.7575
300.7465
300.8251
300.7218
300.8517
300.6872
300.7072
300.7414
300.6919
300.7403
300.7312
300.7280
300.7879
300.7713
300.8337
300.7911
300.7175
300.8637
300.7097
300.7922
300.7424
300.6786
300.7781
300.6817
300.8036
300.7062
300.7467
300.8061
300.7871
300.8209
300.8049
300.7637
300.8124
300.7330
300.7681
300.7493
300.6396
300.8243
300.6985
300.8011
300.7952
300.7713
300.8694
300.7610
300.8555
300.7363
300.7175
300.7740
300.7150
300.7094
300.7647
300.7246
300.8222
300.7936
300.8488
300.8404
300.7457
300.9110
300.7283
300.8001
300.7825
300.7059
300.8051
300.7245
300.8022
300.7501
300.7579
300.8269
300.7794
300.7603
300.7963
300.7012
300.7586
300.6578
300.6486
300.6516
300.5196
300.6782
300.5143
300.5899
300.5887
300.5480
300.6264
300.5057
300.5456
300.4674
300.3996
300.4493
300.3661
300.3092
300.3913
300.3091
300.3965
300.3546
300.3661
300.3727
300.2609
300.4077
300.1986
300.2453
300.2299
300.1456
300.2225
300.1380
300.1779
300.1350
300.1126
300.1689
300.994
300.584
300.1093
299.9919
300.453
299.9437
299.9147
299.9200
299.7804
299.9320
299.7661
299.8298
299.8263
299.7860
299.8621
299.7387
299.7809
299.6878
299.6208
299.6648
299.5882
299.5428
299.6108
299.5407
299.6224
299.5765
299.6037
299.5976
299.4920
299.6525
299.4528
299.5210
299.5019
299.4288
299.5246
299.4390
299.5216
299.4725
299.4833
299.5543
299.5246
299.5305
299.5694
299.5000
299.5736
299.4974
299.5216
299.5266
299.4216
299.6098
299.4869
299.6036
299.6164
299.6060
299.7228
299.6321
299.7293
299.6342
299.6169
299.6861
299.6389
299.6532
299.7229
299.6937
299.7938
299.7808
299.8436
299.8429
299.7572
299.9268
299.7601
299.8544
299.8467
299.7848
299.9039
299.8281
299.9304
299.8752
299.9094
299.9856
299.9670
299.9945
300.245
299.9731
300.502
299.9829
300.223
300.306
299.9337
300.1255
300.77
300.1229
300.1368
300.1296
300.2424
300.1429
300.2443
300.1487
300.1319
300.2007
300.1519
300.1597
300.2327
300.1940
300.3045
300.2833
300.3389
300.3376
300.2482
300.4250
300.2441
300.3261
300.3162
300.2586
300.3733
300.2922
300.3772
300.3387
300.3612
300.4433
300.4075
300.4141
300.4608
300.3851
300.4624
300.3797
300.3946
300.4189
300.3119
300.4998
300.3680
300.4717
300.4893
300.4753
300.5812
300.4823
300.5483
300.4875
300.4437
300.5140
300.4592
300.4295
300.5379
300.4821
300.5947
300.5650
300.6001
300.6343
300.5389
300.7055
300.5101
300.5769
300.5901
300.5325
300.6268
300.5657
300.6191
300.6192
300.6153
300.6967
300.6521
300.6145
300.7102
300.6113
300.6915
300.6155
300.5932
300.6502
300.5416
300.7117
300.5805
300.6535
300.6935
300.6787
300.7577
300.6788
300.6971
300.6838
300.6119
300.6769
300.6231
300.5513
300.7014
300.6147
300.7203
300.6927
300.6947
300.7564
300.6564
300.8009
300.6223
300.6477
300.6767
300.6313
300.6920
300.6630
300.6775
300.7239
300.7126
300.7877
300.7455
300.6770
300.8150
300.6786
300.7625
300.7056
300.6561
300.7472
300.6517
300.7871
300.6740
300.7212
300.7747
300.7579
300.8038
300.7680
300.7374
300.7743
300.6972
300.7403
300.7081
300.6102
300.7829
300.6730
300.7820
300.7701
300.7458
300.8409
300.7342
300.8384
300.6982
300.6912
300.7345
300.6816
300.6955
300.7237
300.6929
300.7743
300.7516
300.8105
300.7807
300.6910
300.8533
300.6710
300.7539
300.7270
300.6567
300.7650
300.6785
300.7702
300.7014
300.7246
300.7920
300.7580
300.7673
300.7886
300.7159
300.7809
300.6948
300.7146
300.7132
300.6006
300.7854
300.6430
300.7366
300.7426
300.7171
300.8093
300.6944
300.7671
300.6755
300.6344
300.6902
300.6251
300.5957
300.6778
300.6174
300.7157
300.6828
300.7171
300.7246
300.6199
300.7783
300.5801
300.6458
300.6360
300.5624
300.6561
300.5888
300.6385
300.6169
300.6154
300.6918
300.6420
300.6161
300.6959
300.5930
300.6742
300.5938
300.5782
300.6218
300.5131
300.6851
300.5397
300.6246
300.6609
300.6401
300.7201
300.6324
300.6618
300.6319
300.5640
300.6167
300.5514
300.4796
300.6006
300.5086
300.5957
300.5495
300.5393
300.5679
300.4440
300.5726
300.3545
300.3754
300.3739
300.2824
300.3323
300.2577
300.2525
300.2441
300.2123
300.2638
300.1895
300.1197
300.2047
300.634
300.1184
300.309
299.9801
300.183
299.8887
300.278
299.8741
299.9417
299.9605
299.9266
299.9967
299.8983
299.9076
299.8800
299.8115
299.8639
299.8004
299.7334
299.8602
299.7709
299.8710
299.8348
299.8412
299.8806
299.7708
299.9102
299.7083
299.7500
299.7529
299.6714
299.7364
299.6604
299.6752
299.6594
299.6331
299.6860
299.6164
299.5668
299.6340
299.5031
299.5592
299.4556
299.4171
299.4330
299.3000
299.4509
299.2890
299.3613
299.3681
299.3287
299.4070
299.2885
299.3263
299.2454
299.1813
299.2292
299.1544
299.1161
299.1940
299.1282
299.2217
299.1857
299.2257
299.2213
299.1243
299.2895
299.1002
299.1697
299.1563
299.855
299.1896
299.1060
299.1933
299.1370
299.1647
299.2397
299.2084
299.2258
299.2500
299.1936
299.2605
299.1821
299.2200
299.2176
299.1215
299.3156
299.2028
299.3203
299.3299
299.3255
299.4417
299.3456
299.4563
299.3424
299.3421
299.4075
299.3625
299.3913
299.4411
299.4219
299.5212
299.5139
299.5848
299.5680
299.5035
299.6771
299.5266
299.6164
299.5953
299.5385
299.6604
299.5835
299.7105
299.6315
299.6796
299.7483
299.7475
299.7947
299.7864
299.7611
299.8239
299.7519
299.8049
299.7879
299.6961
299.8918
299.7941
299.9166
299.9198
299.9122
300.263
299.9377
300.612
299.9333
299.9379
300.9
299.9654
300.10
300.357
300.192
300.1144
300.1029
300.1770
300.1568
300.821
300.2488
300.927
300.1816
300.1561
300.979
300.2118
300.1333
300.2513
300.1711
300.2144
300.2868
300.2734
300.3104
300.3102
300.2689
300.3327
300.2627
300.3036
300.2935
300.1903
300.3814
300.2661
300.3792
300.3857
300.3670
300.4714
300.3736
300.4728
300.3652
300.3513
300.4119
300.3561
300.3674
300.4244
300.3888
300.4851
300.4624
300.5263
300.5201
300.4297
300.6017
300.4197
300.5033
300.4875
300.4236
300.5385
300.4621
300.5550
300.5081
300.5313
300.6093
300.5809
300.5893
300.6322
300.5603
300.6408
300.5579
300.5760
300.5963
300.4948
300.6821
300.5487
300.6603
300.6806
300.6625
300.7702
300.6681
300.7338
300.6681
300.6241
300.6836
300.6263
300.5949
300.6995
300.6398
300.7464
300.7144
300.7417
300.7667
300.6625
300.8223
300.6253
300.6862
300.6897
300.6263
300.7207
300.6570
300.6984
300.7040
300.7045
300.7830
300.7352
300.6999
300.7978
300.6888
300.7743
300.6980
300.6760
300.7362
300.6317
300.7953
300.6619
300.7354
300.7720
300.7528
300.8299
300.7478
300.7600
300.7615
300.6946
300.7513
300.6958
300.6181
300.7682
300.6774
300.7859
300.7598
300.7473
300.8237
300.7200
300.8472
300.6707
300.6944
300.7323
300.6776
300.7380
300.7129
300.7081
300.7639
300.7539
300.8249
300.7807
300.7131
300.8627
300.7188
300.8036
300.7519
300.6931
300.7962
300.7070
300.8398
300.7370
300.7807
300.8363
300.8210
300.8653
300.8378
300.7987
300.8443
300.7659
300.8034
300.7773
300.6780
300.8583
300.7451
300.8560
300.8524
300.8217
300.9195
300.8109
300.9119
300.7780
300.7588
300.8070
300.7506
300.7571
300.7923
300.7466
300.8326
300.8007
300.8502
300.8307
300.7349
300.8919
300.7035
300.7753
300.7441
300.6642
300.7587
300.6608
300.7354
300.6649
300.6630
300.7179
300.6592
300.6422
300.6586
300.5617
300.6038
300.5011
300.4963
300.4838
300.3494
300.5147
300.3568
300.4352
300.4273
300.3855
300.4639
300.3459
300.4078
300.3008
300.2424
300.2933
300.2202
300.1865
300.2575
300.1890
300.2680
300.2229
300.2574
300.2481
300.1380
300.2888
300.869
300.1467
300.1325
300.667
300.1567
300.704
300.1438
300.1000
300.1059
300.1784
300.1354
300.1214
300.1626
300.768
300.1427
300.573
300.660
300.790
299.9668
300.1522
300.108
300.1040
300.1214
300.989
300.1912
300.830
300.1513
300.774
300.383
300.1048
300.449
300.102
300.974
300.440
300.1420
300.1135
300.1489
300.1494
300.524
300.2214
300.250
300.874
300.755
300.136
300.1124
300.363
300.1095
300.755
300.855
300.1644
300.1222
300.1075
300.1671
300.819
300.1601
300.713
300.738
300.943
299.9798
300.1608
300.175
300.1091
300.1285
300.1068
300.1994
300.946
300.1543
300.827
300.334
300.975
300.331
299.9987
300.975
300.364
300.1338
300.1040
300.1395
300.1619
300.637
300.2281
300.365
300.1057
300.1010
300.341
300.1376
300.745
300.1369
300.1189
300.1271
300.2063
300.1627
300.1437
300.2116
300.1178
300.1970
300.1129
300.1100
300.1344
300.232
300.2016
300.560
300.1492
300.1730
300.1468
300.2388
300.1415
300.1877
300.1347
300.817
300.1418
300.827
300.458
300.1527
300.925
300.1975
300.1659
300.1938
300.2189
300.1180
300.2791
300.819
300.1478
300.1500
300.832
300.1768
300.1136
300.1621
300.1482
300.1477
300.2225
300.1717
300.1483
300.2293
300.1272
300.2114
300.1313
300.1177
300.1600
300.485
300.2177
300.726
300.1570
300.1847
300.1581
300.2438
300.1488
300.1828
300.1356
300.719
300.1304
300.677
300.141
300.1333
300.606
300.1591
300.1256
300.1423
300.1735
300.652
300.2246
300.253
300.762
300.866
300.203
300.1025
300.373
300.765
300.756
300.696
300.1454
300.961
300.601
300.1524
300.444
300.1231
300.464
300.315
300.804
299.9715
300.1423
300.66
300.875
300.1219
300.1064
300.1924
300.1012
300.1400
300.1148
300.558
300.1169
300.601
300.86
300.1368
300.682
300.1789
300.1484
300.1628
300.2089
300.1091
300.2606
300.691
300.1229
300.1354
300.711
300.1572
300.977
300.1340
300.1432
300.1385
300.2147
300.1670
300.1264
300.2241
300.1165
300.1987
300.1163
300.950
300.1520
300.465
300.2097
300.700
300.1524
300.1897
300.1781
300.2634
300.1774
300.2015
300.1805
300.1195
300.1853
300.1269
300.633
300.2037
300.1299
300.2334
300.2034
300.2135
300.2627
300.1602
300.3139
300.1232
300.1654
300.1845
300.1263
300.1980
300.1462
300.1670
300.1889
300.1789
300.2503
300.1938
300.1407
300.2479
300.1224
300.1966
300.1209
300.908
300.1512
300.467
300.2053
300.633
300.1316
300.1731
300.1540
300.2281
300.1515
300.1625
300.1483
300.804
300.1423
300.841
300.22
300.1525
300.693
300.1670
300.1391
300.1415
300.1969
300.879
300.2353
300.537
300.812
300.1156
300.621
300.1249
300.909
300.1075
300.1376
300.1234
300.2009
300.1488
300.899
300.2104
300.864
300.1582
300.866
300.456
300.1151
300.74
300.1637
300.262
300.942
300.1454
300.1321
300.1958
300.1215
300.1323
300.1285
300.540
300.1193
300.632
299.9833
300.1369
300.488
300.1470
300.1283
300.1301
300.1902
300.839
300.2288
300.433
300.719
300.1076
300.567
300.1197
300.930
300.1086
300.1486
300.1361
300.2205
300.1720
300.1107
300.2401
300.1095
300.1939
300.1293
300.864
300.1590
300.607
300.2149
300.908
300.1543
300.2049
300.1911
300.2568
300.1967
300.1916
300.2033
300.1324
300.1837
300.1392
300.553
300.2169
300.1236
300.2247
300.2019
300.1983
300.2693
300.1626
300.2979
300.1283
300.1504
300.1924
300.1385
300.1880
300.1710
300.1743
300.2256
300.2141
300.2906
300.2432
300.1765
300.3147
300.1774
300.2581
300.2084
300.1560
300.2477
300.1592
300.3000
300.1823
300.2401
300.2993
300.2868
300.3388
300.2906
300.2692
300.2976
300.2262
300.2795
300.2362
300.1418
300.3099
300.2070
300.3139
300.2930
300.2676
300.3510
300.2409
300.3629
300.2005
300.2066
300.2450
300.1910
300.2214
300.2119
300.1999
300.2613
300.2493
300.3191
300.2743
300.2008
300.3443
300.1914
300.2726
300.2262
300.1641
300.2598
300.1674
300.2872
300.1820
300.2281
300.2849
300.2659
300.3066
300.2789
300.2391
300.2774
300.2038
300.2497
300.2122
300.1113
300.2854
300.1773
300.2861
300.2734
300.2517
300.3480
300.2434
300.3574
300.2144
300.2111
300.2579
300.2085
300.2329
300.2527
300.2272
300.3037
300.2901
300.3558
300.3272
300.2450
300.3986
300.2330
300.3165
300.2794
300.2078
300.3060
300.2092
300.3212
300.2282
300.2618
300.3218
300.2971
300.3193
300.3059
300.2458
300.2884
300.1929
300.2190
300.1818
300.549
300.2165
300.755
300.1614
300.1343
300.843
300.1551
300.242
300.1011
299.9400
299.9062
299.9309
299.8513
299.8443
299.8459
299.7923
299.8456
299.8019
299.8480
299.7971
299.6966
299.8392
299.6603
299.7294
299.6758
299.5989
299.6874
299.5839
299.6955
299.5929
299.6236
299.6795
299.6492
299.6805
299.6504
299.6163
299.6519
299.5759
299.6143
299.5773
299.4746
299.6509
299.5416
299.6440
299.6313
299.6135
299.6907
299.5825
299.7000
299.5324
299.5361
299.5698
299.5090
299.5389
299.5223
299.5074
299.5542
299.5192
299.5729
299.5076
299.4214
299.5444
299.3839
299.4451
299.3596
299.2875
299.3410
299.2092
299.3269
299.1771
299.2033
299.2160
299.1718
299.2062
299.1076
299.806
299.458
298.9495
298.9841
298.8992
298.8007
298.9142
298.8110
298.8862
298.8370
298.8274
298.8529
298.7247
298.8576
298.6522
298.6951
298.6899
298.6131
298.6937
298.6169
298.6636
298.6351
298.6244
298.6961
298.6507
298.6367
298.6923
298.6119
298.6829
298.5988
298.6136
298.6219
298.5110
298.6976
298.5694
298.6728
298.6795
298.6664
298.7744
298.6676
298.7695
298.6677
298.6572
298.7150
298.6700
298.6871
298.7274
298.7082
298.8037
298.7901
298.8631
298.8428
298.7755
298.9430
298.7952
298.8894
298.8592
298.8123
298.9295
298.8485
298.9858
298.8967
298.9598
299.244
299.261
299.894
299.588
299.565
299.1025
299.412
299.1060
299.768
299.29
299.1814
299.965
299.2191
299.2121
299.2207
299.3191
299.2284
299.3774
299.2206
299.2584
299.3045
299.2679
299.3434
299.3280
299.3512
299.4128
299.4183
299.5048
299.4696
299.4267
299.5632
299.4470
299.5427
299.4877
299.4561
299.5498
299.4617
299.6234
299.5048
299.5853
299.6396
299.6388
299.7183
299.6560
299.6727
299.6826
299.6271
299.6981
299.6467
299.5790
299.7341
299.6612
299.7764
299.7650
299.7738
299.8420
299.7429
299.8984
299.7204
299.7637
299.7945
299.7455
299.8231
299.7836
299.8113
299.8475
299.8428
299.9267
299.8907
299.8494
299.9638
299.8542
299.9439
299.8775
299.8480
299.9169
299.8217
299.9871
299.8632
299.9441
299.9907
299.9826
300.664
299.9933
300.139
300.96
299.9527
300.201
299.9721
299.9067
300.630
299.9904
300.1011
300.828
300.950
300.1607
300.639
300.2214
300.425
300.823
300.1140
300.631
300.1410
300.1101
300.1358
300.1724
300.1686
300.2564
300.2117
300.1597
300.2899
300.1746
300.2615
300.1990
300.1675
300.2479
300.1476
300.3109
300.1960
300.2676
300.3146
300.3082
300.3803
300.3180
300.3297
300.3461
300.2811
300.3458
300.3119
300.2349
300.3975
300.3194
300.4266
300.4010
300.4037
300.4830
300.3743
300.5134
300.3501
300.3701
300.4075
300.3660
300.4180
300.4060
300.4163
300.4748
300.4598
300.5334
300.4873
300.4178
300.5653
300.4290
300.5089
300.4538
300.4055
300.5043
300.4088
300.5411
300.4327
300.4812
300.5395
300.5261
300.5689
300.5325
300.5061
300.5426
300.4603
300.5065
300.4784
300.3755
300.5531
300.4444
300.5425
300.5259
300.5044
300.5985
300.4823
300.5939
300.4494
300.4386
300.4814
300.4300
300.4472
300.4649
300.4394
300.5150
300.4926
300.5546
300.5248
300.4367
300.5975
300.4282
300.5111
300.4770
300.4146
300.5245
300.4280
300.5378
300.4610
300.4930
300.5592
300.5307
300.5526
300.5550
300.5012
300.5561
300.4754
300.5072
300.5002
300.3865
300.5740
300.4483
300.5493
300.5433
300.5243
300.6226
300.5088
300.6043
300.4982
300.4691
300.5264
300.4720
300.4658
300.5293
300.4807
300.5789
300.5519
300.6042
300.5989
300.5041
300.6734
300.4827
300.5521
300.5366
300.4685
300.5760
300.4985
300.5787
300.5403
300.5533
300.6283
300.5893
300.5796
300.6285
300.5405
300.6184
300.5341
300.5411
300.5664
300.4527
300.6408
300.4985
300.5953
300.6116
300.5876
300.6826
300.5846
300.6401
300.5851
300.5266
300.5950
300.5335
300.4913
300.6053
300.5387
300.6400
300.6065
300.6341
300.6659
300.5586
300.7138
300.5247
300.5771
300.5903
300.5296
300.6130
300.5488
300.5841
300.5882
300.5786
300.6530
300.6009
300.5594
300.6578
300.5396
300.6203
300.5452
300.5177
300.5755
300.4704
300.6323
300.4936
300.5754
300.6142
300.5966
300.6738
300.5921
300.6105
300.6048
300.5347
300.5918
300.5352
300.4603
300.6174
300.5345
300.6359
300.6103
300.6176
300.6831
300.5732
300.7113
300.5326
300.5551
300.5805
300.5280
300.5827
300.5534
300.5524
300.6034
300.5918
300.6571
300.6119
300.5456
300.6830
300.5447
300.6228
300.5626
300.5126
300.6022
300.5043
300.6354
300.5193
300.5729
300.6260
300.6112
300.6533
300.6079
300.5798
300.6103
300.5341
300.5811
300.5472
300.4467
300.6181
300.5141
300.6238
300.6093
300.5888
300.6831
300.5679
300.6775
300.5273
300.5199
300.5613
300.5127
300.5366
300.5532
300.5256
300.6004
300.5782
300.6470
300.6155
300.5291
300.6871
300.5234
300.5998
300.5625
300.4936
300.6002
300.5065
300.6122
300.5267
300.5535
300.6200
300.5958
300.6134
300.6125
300.5555
300.6108
300.5297
300.5608
300.5490
300.4405
300.6269
300.4931
300.5994
300.6009
300.5740
300.6723
300.5592
300.6456
300.5347
300.5001
300.5588
300.5045
300.4923
300.5610
300.5115
300.5977
300.5695
300.6221
300.6093
300.5099
300.6771
300.4887
300.5564
300.5403
300.4713
300.5728
300.4908
300.5724
300.5316
300.5409
300.6185
300.5765
300.5643
300.6134
300.5273
300.5967
300.5099
300.5117
300.5347
300.4166
300.5909
300.4429
300.5333
300.5505
300.5243
300.6093
300.4992
300.5518
300.4891
300.4336
300.4898
300.4219
300.3774
300.4883
300.4196
300.5111
300.4787
300.5005
300.5163
300.4108
300.5721
300.3682
300.4210
300.4261
300.3620
300.4470
300.3831
300.4245
300.4171
300.4151
300.4900
300.4384
300.4050
300.4988
300.3880
300.4608
300.3818
300.3636
300.4140
300.3078
300.4778
300.3356
300.4136
300.4456
300.4276
300.5097
300.4223
300.4491
300.4258
300.3609
300.4251
300.3657
300.2990
300.4394
300.3651
300.4708
300.4432
300.4484
300.4983
300.3923
300.5440
300.3538
300.3872
300.4134
300.3553
300.4267
300.3857
300.4114
300.4403
300.4284
300.5060
300.4531
300.3967
300.5204
300.3873
300.4695
300.4020
300.3556
300.4296
300.3302
300.4848
300.3591
300.4246
300.4707
300.4556
300.5209
300.4543
300.4491
300.4614
300.3874
300.4476
300.3987
300.3104
300.4730
300.3827
300.4927
300.4704
300.4595
300.5317
300.4226
300.5586
300.3826
300.3965
300.4288
300.3805
300.4272
300.4124
300.4078
300.4585
300.4327
300.5026
300.4584
300.3804
300.5148
300.3693
300.4510
300.3972
300.3368
300.4245
300.3247
300.4543
300.3442
300.3866
300.4375
300.4186
300.4576
300.4181
300.3921
300.4273
300.3425
300.3887
300.3550
300.2597
300.4361
300.3302
300.4341
300.4177
300.4045
300.4968
300.3843
300.4949
300.3489
300.3363
300.3784
300.3236
300.3377
300.3449
300.3236
300.3945
300.3678
300.4246
300.3883
300.3025
300.4541
300.2899
300.3681
300.3275
300.2561
300.3598
300.2596
300.3764
300.2870
300.3191
300.3764
300.3558
300.3771
300.3662
300.3179
300.3660
300.2749
300.3094
300.2918
300.1846
300.3660
300.2508
300.3572
300.3507
300.3303
300.4231
300.3117
300.4149
300.2888
300.2688
300.3206
300.2673
300.2692
300.3116
300.2847
300.3699
300.3448
300.4034
300.3896
300.2980
300.4599
300.2800
300.3617
300.3327
300.2683
300.3821
300.2951
300.3904
300.3288
300.3493
300.4178
300.3916
300.4020
300.4181
300.3556
300.4206
300.3348
300.3610
300.3614
300.2452
300.4342
300.3000
300.3954
300.3969
300.3714
300.4663
300.3515
300.4316
300.3303
300.2907
300.3481
300.2872
300.2682
300.3370
300.2880
300.3767
300.3393
300.3852
300.3812
300.2811
300.4481
300.2542
300.3243
300.3082
300.2408
300.3426
300.2615
300.3456
300.3010
300.3071
300.3871
300.3472
300.3387
300.3874
300.3012
300.3712
300.2867
300.2936
300.3168
300.2037
300.3855
300.2486
300.3409
300.3551
300.3365
300.4311
300.3246
300.3881
300.3209
300.2747
300.3404
300.2809
300.2482
300.3444
300.2869
300.3854
300.3514
300.3852
300.4045
300.3007
300.4642
300.2697
300.3296
300.3281
300.2625
300.3544
300.2878
300.3473
300.3345
300.3327
300.4134
300.3666
300.3388
300.4199
300.3202
300.3948
300.3099
300.3004
300.3423
300.2331
300.4041
300.2641
300.3421
300.3644
300.3375
300.4136
300.3011
300.3271
300.2750
300.1892
300.2264
300.1448
300.625
300.1589
300.555
300.1252
300.545
300.411
300.428
299.9041
300.278
299.7943
299.8165
299.7866
299.6925
299.7476
299.6462
299.6680
299.6309
299.6048
299.6514
299.5787
299.5333
299.5736
299.4539
299.5065
299.3938
299.3774
299.3820
299.2431
299.4040
299.2435
299.3213
299.3145
299.2780
299.3604
299.2409
299.2967
299.1905
299.1372
299.1805
299.1015
299.692
299.1186
299.558
299.1300
299.844
299.1162
299.828
298.9676
299.1103
298.9104
298.9696
298.9267
298.8446
298.9355
298.8255
298.9144
298.8195
298.8399
298.8909
298.8572
298.8764
298.8457
298.8001
298.8418
298.7532
298.7872
298.7460
298.6420
298.8110
298.7047
298.8024
298.7832
298.7688
298.8507
298.7460
298.8708
298.7002
298.7223
298.7559
298.7037
298.7640
298.7406
298.7484
298.7953
298.7893
298.8693
298.8283
298.7832
298.9080
298.7976
298.8923
298.8273
298.8026
298.8750
298.7764
298.9429
298.8198
298.9118
298.9560
298.9539
299.467
298.9652
299.122
298.9900
298.9458
299.190
298.9744
298.9380
299.671
299.128
299.1265
299.1027
299.1430
299.1774
299.898
299.2653
299.811
299.1538
299.1622
299.1089
299.2201
299.1550
299.2345
299.2220
299.2403
299.3301
299.3005
299.3024
299.3647
299.2966
299.3814
299.3070
299.3304
299.3497
299.2507
299.4533
299.3264
299.4371
299.4627
299.4521
299.5666
299.4702
299.5598
299.4777
299.4522
299.5293
299.4830
299.4775
299.5567
299.5233
299.6276
299.6096
299.6716
299.6691
299.5871
299.7625
299.5903
299.6692
299.6573
299.5912
299.7014
299.6228
299.7170
299.6664
299.6942
299.7687
299.7410
299.7570
299.7823
299.7196
299.7914
299.7064
299.7363
299.7393
299.6325
299.8189
299.6993
299.8069
299.8075
299.7899
299.8967
299.8000
299.8951
299.7911
299.7692
299.8317
299.7831
299.7931
299.8467
299.8112
299.9074
299.8900
299.9506
299.9427
299.8527
300.243
299.8523
299.9370
299.9088
299.8460
299.9583
299.8738
299.9803
299.9172
299.9414
300.180
300.50
300.264
300.438
299.9856
300.517
299.9745
300.101
300.78
299.9033
300.966
299.9769
300.850
300.964
300.829
300.1850
300.812
300.1857
300.822
300.578
300.1187
300.704
300.744
300.1372
300.1029
300.1961
300.1719
300.2320
300.2221
300.1326
300.3032
300.1241
300.2093
300.1925
300.1262
300.2345
300.1523
300.2472
300.1967
300.2177
300.2953
300.2622
300.2734
300.3123
300.2432
300.3152
300.2339
300.2594
300.2689
300.1653
300.3526
300.2232
300.3318
300.3454
300.3328
300.4373
300.3320
300.4110
300.3265
300.2895
300.3503
300.2951
300.2754
300.3594
300.3091
300.4033
300.3725
300.4158
300.4197
300.3247
300.4883
300.2937
300.3615
300.3558
300.2859
300.3917
300.3122
300.3789
300.3518
300.3611
300.4406
300.4009
300.3861
300.4438
300.3562
300.4365
300.3540
300.3585
300.3887
300.2755
300.4555
300.3148
300.4120
300.4399
300.4196
300.5176
300.4161
300.4604
300.4103
300.3591
300.4268
300.3667
300.3148
300.4304
300.3638
300.4714
300.4443
300.4649
300.4944
300.3953
300.5592
300.3661
300.4195
300.4320
300.3705
300.4570
300.3982
300.4393
300.4521
300.4498
300.5276
300.4809
300.4403
300.5404
300.4324
300.5141
300.4446
300.4164
300.4795
300.3749
300.5358
300.3976
300.4802
300.5116
300.4946
300.5829
300.4976
300.5102
300.4976
300.4327
300.4901
300.4379
300.3672
300.5161
300.4311
300.5383
300.5137
300.5127
300.5715
300.4673
300.6107
300.4264
300.4547
300.4851
300.4282
300.4929
300.4617
300.4719
300.5158
300.5020
300.5775
300.5316
300.4696
300.5991
300.4678
300.5528
300.4945
300.4462
300.5302
300.4300
300.5694
300.4462
300.4995
300.5508
300.5343
300.5854
300.5379
300.5168
300.5330
300.4572
300.5080
300.4642
300.3719
300.5451
300.4402
300.5400
300.5209
300.5059
300.5888
300.4824
300.6022
300.4457
300.4514
300.4907
300.4400
300.4733
300.4793
300.4580
300.5271
300.5038
300.5693
300.5323
300.4496
300.6007
300.4372
300.5184
300.4767
300.4099
300.5080
300.4134
300.5270
300.4270
300.4668
300.5239
300.4964
300.5240
300.5051
300.4573
300.5044
300.4214
300.4557
300.4264
300.3167
300.4998
300.3800
300.4771
300.4717
300.4440
300.5377
300.4298
300.5334
300.3986
300.3799
300.4346
300.3768
300.3786
300.4135
300.3796
300.4665
300.4389
300.4967
300.4696
300.3759
300.5346
300.3526
300.4260
300.3926
300.3233
300.4306
300.3393
300.4300
300.3638
300.3879
300.4570
300.4233
300.4362
300.4530
300.3841
300.4524
300.3673
300.3888
300.3839
300.2663
300.4486
300.3135
300.4124
300.4247
300.3995
300.4987
300.3916
300.4719
300.3735
300.3335
300.3962
300.3376
300.3178
300.3908
300.3425
300.4358
300.4062
300.4544
300.4449
300.3468
300.5121
300.3199
300.3851
300.3754
300.3049
300.4049
300.3284
300.4057
300.3706
300.3812
300.4598
300.4173
300.4095
300.4614
300.3764
300.4511
300.3726
300.3775
300.4035
300.2910
300.4732
300.3327
300.4275
300.4476
300.4261
300.5168
300.4189
300.4736
300.4110
300.3563
300.4183
300.3549
300.3194
300.4276
300.3595
300.4567
300.4226
300.4524
300.4752
300.3681
300.5297
300.3313
300.3833
300.3921
300.3215
300.4084
300.3450
300.3890
300.3841
300.3846
300.4555
300.4019
300.3740
300.4674
300.3544
300.4297
300.3512
300.3355
300.3836
300.2737
300.4412
300.3017
300.3803
300.4145
300.3953
300.4771
300.3853
300.4137
300.3876
300.3244
300.3833
300.3173
300.2563
300.3883
300.3121
300.4132
300.3810
300.3805
300.4231
300.3031
300.4359
300.2269
300.2485
300.2382
300.1437
300.1828
300.930
300.707
300.350
299.9693
299.9747
299.8518
299.7407
299.7593
299.5701
299.5560
299.3916
299.2794
299.2239
299.140
299.854
298.8388
298.8121
298.7213
298.5815
298.5541
298.3271
298.2688
298.433
297.8725
297.7964
297.5997
297.4578
297.3512
297.1784
297.1003
296.9223
296.8409
296.6372
296.4028
296.3722
296.811
295.9868
295.7439
295.5483
295.4103
295.1125
295.1132
294.8043
294.7067
294.5288
294.3228
294.2138
293.9057
293.8393
293.4780
293.2933
293.1085
292.8453
292.7231
292.4409
292.3135
292.324
291.8349
291.6760
291.4396
291.2828
290.9786
290.7898
290.4956
290.2109
290.327
289.7364
289.5256
289.2585
289.373
288.7865
288.5245
288.3428
288.614
287.8343
287.5205
287.2788
286.9680
286.6380
286.4174
286.952
285.8555
285.5427
285.3019
284.9860
284.7068
284.4740
284.1667
283.9491
283.5676
283.3530
282.9304
282.6393
282.3696
282.16
281.7879
281.3950
281.2311
280.8193
280.6011
280.3228
280.156
279.7695
279.3550
279.2181
278.7797
278.5458
278.1820
277.9004
277.5878
277.1945
277.117
276.6689
276.4332
276.1127
275.8906
275.5779
275.3213
274.9577
274.7232
274.3167
274.195
273.7398
273.3812
273.1599
272.7372
272.6087
272.2188
272.32
271.6845
271.4451
271.1248
270.7970
270.5252
270.2268
269.8864
269.5375
269.2755
268.9128
268.6899
268.2671
268.1165
267.7270
267.5112
267.1917
266.9480
266.6334
266.3137
266.102
265.7452
265.3630
265.462
264.7626
264.4052
264.1642
263.7345
263.5841
263.2203
262.9779
262.6494
262.4119
262.967
261.8578
261.4600
261.2887
260.8418
260.5974
260.2307
259.9547
259.6191
259.3004
258.9845
258.7430
258.3572
258.1166
257.8281
257.5507
257.2388
256.8921
256.6147
256.3311
255.9397
255.6291
255.3296
254.9870
254.6985
254.2889
254.682
253.7642
253.4318
253.1500
252.8898
252.5919
252.2974
251.9139
251.6709
251.3590
250.9798
250.6597
250.3570
250.124
249.7138
249.3199
249.810
248.8052
248.4439
248.1906
247.9107
247.6302
247.3198
247.101
246.6770
246.4417
246.23
245.7397
245.3689
245.751
244.7273
244.4440
244.474
243.8590
243.4633
243.2153
242.8760
242.6183
242.2930
242.396
241.6155
241.4119
241.608
240.7122
240.3776
240.813
239.7475
239.4375
239.906
238.7797
238.5446
238.1598
237.9085
237.5749
237.3176
236.9906
236.7314
236.3049
236.1067
235.7454
235.3883
235.611
234.7545
234.4272
234.1026
233.7732
233.4068
233.1976
232.8043
232.5431
232.2019
231.9425
231.6297
231.3495
230.9884
230.7066
230.4512
230.263
229.7554
229.3609
229.681
228.6864
228.4208
227.9829
227.7680
227.4742
227.1093
226.8547
226.5325
226.2623
225.9285
225.6633
225.2400
225.129
224.7117
224.3157
224.346
223.6577
223.3622
222.9758
222.7005
222.2611
222.509
221.7682
221.4068
221.1499
220.8189
220.5494
220.2228
219.9507
219.5892
219.3102
219.638
218.6408
218.3480
217.9468
217.6683
217.3168
217.137
216.6746
216.3005
216.873
215.7090
215.4026
215.1094
214.8384
214.5558
214.2288
213.9480
213.5229
213.3005
213.40
212.6034
212.3214
211.9192
211.6278
211.2673
210.9701
210.6216
210.2482
210.329
209.6647
209.3450
209.672
208.7734
208.4901
208.1639
207.8917
207.5293
207.2479
207.107
206.5901
206.2787
205.9256
205.6334
205.3075
204.9422
204.6522
204.2255
204.43
203.7468
203.3726
203.871
202.7653
202.5129
202.2230
201.9017
201.6172
201.2215
200.9822
200.7393
200.3225
200.81
199.6520
199.3504
199.291
198.6537
198.3748
197.9845
197.7043
197.4639
197.900
196.7802
196.5099
196.2104
195.9321
195.6253
195.3564
195.465
194.6551
194.4307
194.1031
193.7360
193.4436
193.510
192.7751
192.4334
192.849
191.7802
191.3603
191.1228
190.8735
190.5002
190.1949
189.9189
189.6135
189.3397
189.415
188.7705
188.4635
188.443
187.8319
187.5679
187.1692
186.8451
186.4915
186.1766
185.8632
185.5044
185.2262
184.8823
184.4607
184.2572
183.9736
183.6182
183.3202
183.205
182.7476
182.4604
182.1577
181.8912
181.5814
181.1712
180.9557
180.6970
180.3024
179.9751
179.6565
179.3025
179.130
178.6656
178.3508
178.304
177.6184
177.3642
177.1176
176.7701
176.4622
176.1803
175.8408
175.6029
175.3098
174.9948
174.7330
174.4218
174.176
173.8066
173.5460
173.1514
172.8121
172.5027
172.1410
171.8718
171.5350
171.1839
170.8916
170.5270
170.1554
169.9363
169.6574
169.3090
169.58
168.7257
168.4196
168.1772
167.8908
167.5806
167.3082
166.9913
166.6107
166.3949
166.1327
165.7473
165.4095
165.1069
164.7304
164.4576
164.1202
163.7636
163.4947
163.1439
162.7239
162.5081
162.2443
161.9083
161.6047
161.3001
160.9826
160.7179
160.4518
160.1691
159.8739
159.5862
159.2668
158.8884
158.6731
158.4155
158.337
157.6975
157.3925
157.211
156.7334
156.4208
156.799
155.7552
155.4390
155.792
154.6958
154.4860
154.2189
153.8679
153.5707
153.2737
152.9568
152.6926
152.4308
152.1410
151.8368
151.5697
151.2548
150.8596
150.6407
150.3829
150.543
149.6985
149.3545
149.319
148.6636
148.3930
148.599
147.7200
147.4069
147.687
146.7049
146.3151
146.1060
145.8279
145.4848
145.1749
144.8452
144.5503
144.2324
143.9976
143.6944
143.4019
143.1121
142.8008
142.4809
142.874
141.8687
141.5970
141.2732
140.9195
140.5689
140.2550
139.8750
139.5769
139.2774
138.9307
138.5800
138.2957
137.9234
137.5442
137.2067
136.9897
136.7150
136.3754
136.719
135.7393
135.4498
135.1276
134.8844
134.6050
134.3164
134.171
133.7611
133.4241
133.953
132.7465
132.5301
132.2536
131.9227
131.5722
131.2223
130.9002
130.5343
130.2136
129.9284
129.5806
129.2366
128.9098
128.5955
128.2185
127.8164
127.5146
127.2688
126.9763
126.6329
126.3124
125.9880
125.6893
125.3625
125.786
124.8217
124.5086
124.2138
123.9086
123.6324
123.2862
122.9464
122.5895
122.3659
122.825
121.7798
121.4116
121.843
120.7194
120.3824
120.90
119.7021
119.4058
119.525
118.7139
118.3770
118.754
117.6981
117.3344
116.9567
116.7318
116.4495
116.1602
115.8134
115.5104
115.1798
114.8770
114.5624
114.2674
114.275
113.7500
113.4534
113.1681
112.8901
112.6049
112.2658
111.9360
111.5894
111.3672
111.930
110.8141
110.4642
110.1366
109.7992
109.4591
109.1224
108.7720
108.4849
108.2049
107.8685
107.5370
107.2014
106.8997
106.5534
106.1829
105.8219
105.4827
105.2658
104.9909
104.7097
104.3900
104.863
103.7945
103.4656
103.1778
102.8684
102.5992
102.3655
102.1014
101.8055
101.5293
101.2452
100.9847
100.6554
100.3409
100.195
99.7017
99.4866
99.2286
98.9501
98.6365
98.3004
97.9872
97.6319
97.3018
96.9669
96.6214
96.3313
96.564
95.7437
95.4082
95.891
94.7743
94.4812
94.1321
93.7670
93.4189
93.558
92.7984
92.5632
92.2708
91.9852
91.6626
91.3607
91.755
90.7443
90.4489
90.1561
89.8545
89.6032
89.3669
89.1118
88.8179
88.5478
88.2733
88.3
87.7297
87.3937
87.786
86.7670
86.4402
86.1930
85.9696
85.6925
85.4175
85.1105
84.7863
84.4858
84.1561
83.8034
83.4774
83.1397
82.8075
82.5158
82.2322
81.9392
81.6066
81.2785
80.9645
80.6477
80.3360
80.136
79.6384
79.2888
78.9565
78.6179
78.3575
78.1348
77.8706
77.5874
77.3119
77.81
76.7116
76.4290
76.1225
75.7931
75.4941
75.1981
74.9070
74.6475
74.4108
74.1758
73.9177
73.6336
73.3621
73.981
72.8324
72.5622
72.2862
71.9569
71.6380
71.3432
71.412
70.7464
70.5060
70.2794
70.174
69.7314
69.4471
69.1338
68.8119
68.5048
68.1880
67.8470
67.4935
67.1731
66.8544
66.5396
66.2389
65.9664
65.7014
65.4392
65.1555
64.8506
64.5553
64.2711
63.9918
63.7153
63.4423
63.1610
62.8442
62.5412
62.2672
62.84
61.7559
61.5479
61.3774
61.2167
61.258
60.8249
60.6268
60.4337
60.2313
60.487
59.8762
59.6981
59.4974
59.2983
59.1270
58.9695
58.8234
58.6930
58.5850
58.4928
58.4046
58.3090
58.1916
58.581
57.9340
57.8220
57.7163
57.6124
57.5040
57.3928
57.2525
57.1052
56.9816
56.8797
56.7860
56.6941
56.6392
56.6058
56.5691
56.5027
56.4222
56.3365
56.2487
56.1440
56.486
55.9617
55.8702
55.7607
55.6352
55.5201
55.4240
55.3351
55.2509
55.1763
55.1236
55.735
55.286
54.9707
54.8904
54.7991
54.7187
54.6448
54.5791
54.5172
54.4569
54.3974
54.3138
54.2111
54.1204
54.560
54.74
53.9653
53.9362
53.9452
53.9753
53.9877
53.9741
53.9498
53.9272
53.8987
53.8663
53.8442
53.8391
53.8265
53.8022
53.7561
53.7210
53.7088
53.7027
53.7080
53.7261
53.7654
53.8135
53.8648
53.9067
53.9281
53.9314
53.9396
53.9577
53.9770
53.9987
54.130
54.247
54.164
53.9817
53.9481
53.9430
53.9508
53.9565
53.9697
54.144
54.767
54.1255
54.1449
54.1470
54.1490
54.1397
54.1196
54.1000
54.955
54.810
54.530
54.25
53.9615
53.9407
53.9283
53.9206
53.9204
53.9370
53.9576
53.9817
53.9959
53.9857
53.9530
53.9289
53.9055
53.8909
53.8810
53.8657
53.8499
53.8132
53.7564
53.6986
53.6719
53.6591
53.6545
53.6619
53.7092
53.7776
53.8414
53.8757
53.8906
53.9091
53.9214
53.9278
53.9400
53.9691
53.9921
54.16
53.9896
53.9893
54.107
54.373
54.687
54.1130
54.1767
54.2466
54.3212
54.3851
54.4299
54.4492
54.4750
54.5088
54.5478
54.5884
54.6181
54.6479
54.6563
54.6380
54.6315
54.6502
54.6827
54.7139
54.7554
54.8251
54.9044
54.9629
54.9948
55.108
55.274
55.260
55.150
55.152
55.198
55.84
54.9791
54.9387
54.9174
54.9072
54.9000
54.8975
54.9050
54.9348
54.9616
54.9873
54.9930
54.9764
54.9535
54.9366
54.9278
54.9276
54.9248
54.9219
54.9053
54.8583
54.8090
54.7790
54.7700
54.7709
54.7791
54.8204
54.8870
54.9503
54.9842
55.14
55.142
55.276
55.298
55.378
55.630
55.825
55.906
55.759
55.767
55.1004
55.1275
55.1640
55.2118
55.2841
55.3575
55.4289
55.4896
55.5252
55.5446
55.5724
55.6079
55.6415
55.6747
55.7005
55.7210
55.7061
55.6859
55.6828
55.7040
55.7257
55.7473
55.7966
55.8696
55.9391
55.9757
55.9941
56.91
56.176
56.119
56.94
56.144
56.90
55.9821
55.9415
55.9200
55.9094
55.9013
55.9020
55.9115
55.9374
55.9606
55.9819
55.9828
55.9586
55.9277
55.9110
55.8968
55.8876
55.8777
55.8691
55.8478
55.7996
55.7529
55.7295
55.7244
55.7293
55.7444
55.7992
55.8760
55.9358
55.9672
55.9850
56.78
56.199
56.247
56.432
56.698
56.846
56.773
56.635
56.793
56.1005
56.1302
56.1665
56.2242
56.2918
56.3662
56.4296
56.4732
56.4945
56.5169
56.5524
56.5926
56.6307
56.6624
56.6954
56.6940
56.6763
56.6764
56.6997
56.7258
56.7452
56.7941
56.8647
56.9333
56.9715
56.9846
56.9919
56.9896
56.9725
56.9582
56.9570
56.9426
56.9092
56.8608
56.8295
56.8165
56.8034
56.8027
56.8162
56.8433
56.8730
56.8948
56.8945
56.8713
56.8455
56.8295
56.8192
56.8089
56.7971
56.7867
56.7519
56.6921
56.6443
56.6229
56.6137
56.6105
56.6322
56.6897
56.7534
56.7908
56.8066
56.8170
56.8323
56.8319
56.8449
56.8684
56.8897
56.8949
56.8797
56.8832
56.9080
56.9385
56.9720
57.244
57.962
57.1666
57.2357
57.2845
57.3069
57.3241
57.3522
57.3875
57.4180
57.4445
57.4691
57.4682
57.4398
57.4305
57.4465
57.4659
57.4839
57.5267
57.6040
57.6772
57.7159
57.7315
57.7421
57.7468
57.7338
57.7289
57.7308
57.7199
57.6861
57.6376
57.6132
57.5977
57.5810
57.5727
57.5806
57.6015
57.6203
57.6303
57.6156
57.5791
57.5479
57.5256
57.5121
57.5013
57.4878
57.4724
57.4262
57.3662
57.3270
57.3124
57.3043
57.3049
57.3430
57.4056
57.4633
57.4879
57.4973
57.5043
57.5029
57.4991
57.5091
57.5241
57.5312
57.5180
57.4988
57.5036
57.5167
57.5361
57.5680
57.6204
57.6840
57.7500
57.8049
57.8395
57.8525
57.8766
57.9109
57.9458
57.9747
58.23
58.169
57.9942
57.9741
57.9764
57.9913
57.9953
58.169
58.741
58.1431
58.1841
58.1981
58.2039
58.2064
58.1910
58.1732
58.1704
58.1592
58.1308
58.802
58.472
58.276
58.131
58.40
58.115
58.311
58.504
58.669
58.593
58.280
58.7
57.9789
57.9650
57.9505
57.9365
57.9168
57.8685
57.7993
57.7536
57.7266
57.7105
57.7052
57.7349
57.7955
57.8546
57.8786
57.8899
57.9035
57.9109
57.9097
57.9250
57.9459
57.9551
57.9387
57.9220
57.9306
57.9480
57.9701
58.64
58.610
58.1237
58.1868
58.2360
58.2619
58.2725
58.2950
58.3255
58.3551
58.3797
58.4050
58.4095
58.3846
58.3670
58.3758
58.3941
58.4057
58.4426
58.5093
58.5821
58.6218
58.6314
58.6392
58.6385
58.6212
58.6035
58.5965
58.5800
58.5397
58.4865
58.4557
58.4345
58.4178
58.4079
58.4190
58.4373
58.4589
58.4677
58.4496
58.4129
58.3871
58.3675
58.3528
58.3391
58.3264
58.3073
58.2489
58.1959
58.1648
58.1524
58.1425
58.1507
58.1985
58.2581
58.2972
58.3056
58.3080
58.3119
58.3026
58.2987
58.3168
58.3330
58.3350
58.3116
58.3117
58.3286
58.3500
58.3823
58.4305
58.4993
58.5634
58.6294
58.6702
58.6847
58.6961
58.7211
58.7502
58.7835
58.8060
58.8261
58.8100
58.7843
58.7806
58.7945
58.8035
58.8191
58.8728
58.9395
58.9924
59.71
59.125
59.161
59.39
58.9887
58.9829
58.9761
58.9535
58.9013
58.8682
58.8508
58.8297
58.8165
58.8176
58.8339
58.8472
58.8578
58.8397
58.8019
58.7701
58.7414
58.7241
58.7069
58.6875
58.6626
58.6049
58.5387
58.4944
58.4744
58.4609
58.4621
58.5087
58.5738
58.6227
58.6386
58.6446
58.6553
58.6498
58.6441
58.6603
58.6701
58.6686
58.6399
58.6269
58.6374
58.6506
58.6723
58.7131
58.7690
58.8297
58.8926
58.9287
58.9456
58.9605
58.9843
59.144
59.398
59.598
59.779
59.567
59.287
59.224
59.340
59.446
59.608
59.1147
59.1842
59.2340
59.2482
59.2527
59.2529
59.2297
59.2052
59.1949
59.1735
59.1345
59.743
59.366
59.171
58.9984
58.9856
58.9894
59.85
59.279
59.384
59.222
58.9858
58.9536
58.9300
58.9150
58.8971
58.8777
58.8543
58.7957
58.7327
58.6920
58.6687
58.6490
58.6482
58.6897
58.7423
58.7768
58.7833
58.7846
58.7923
58.7821
58.7808
58.7964
58.8112
58.8068
58.7833
58.7858
58.7997
58.8165
58.8436
58.8870
58.9464
59.106
59.701
59.1002
59.1129
59.1306
59.1542
59.1820
59.2054
59.2243
59.2297
59.2020
59.1733
59.1718
59.1803
59.1869
59.2109
59.2749
59.3495
59.3964
59.4112
59.4185
59.4201
59.4001
59.3837
59.3801
59.3618
59.3204
59.2685
59.2398
59.2167
59.1962
59.1796
59.1889
59.2033
59.2188
59.2234
59.1994
59.1609
59.1360
59.1165
59.996
59.834
59.709
59.426
58.9733
58.9174
58.8882
58.8740
58.8631
58.8848
58.9382
59.19
59.292
59.360
59.419
59.454
59.391
59.445
59.616
59.719
59.565
59.362
59.384
59.498
59.627
59.906
59.1445
59.2013
59.2644
59.3088
59.3307
59.3469
59.3733
59.4075
59.4393
59.4654
59.4896
59.4877
59.4580
59.4430
59.4501
59.4553
59.4547
59.4936
59.5520
59.6080
59.6267
59.6284
59.6338
59.6214
59.5999
59.5960
59.5841
59.5612
59.5082
59.4651
59.4443
59.4220
59.4016
59.4003
59.4188
59.4369
59.4484
59.4395
59.4085
59.3728
59.3516
59.3338
59.3138
59.2933
59.2686
59.2088
59.1372
59.924
59.680
59.486
59.446
59.821
59.1476
59.1898
59.2027
59.2102
59.2212
59.2162
59.2159
59.2339
59.2485
59.2412
59.2186
59.2115
59.2222
59.2396
59.2665
59.3134
59.3717
59.4337
59.4901
59.5170
59.5255
59.5417
59.5659
59.5940
59.6166
59.6356
59.6424
59.6179
59.5993
59.6033
59.6185
59.6294
59.6615
59.7281
59.7924
59.8254
59.8364
59.8400
59.8355
59.8102
59.7982
59.7879
59.7665
59.7142
59.6607
59.6336
59.6074
59.5862
59.5749
59.5839
59.5946
59.6082
59.5977
59.5649
59.5268
59.4992
59.4758
59.4588
59.4436
59.4304
59.3852
59.3193
59.2733
59.2488
59.2318
59.2178
59.2485
59.3029
59.3488
59.3595
59.3591
59.3622
59.3531
59.3461
59.3564
59.3711
59.3724
59.3464
59.3367
59.3446
59.3628
59.3871
59.4271
59.4842
59.5491
59.6104
59.6453
59.6544
59.6702
59.6969
59.7277
59.7561
59.7765
59.7906
59.7646
59.7376
59.7343
59.7389
59.7423
59.7624
59.8167
59.8820
59.9210
59.9335
59.9389
59.9398
59.9210
59.9072
59.9033
59.8858
59.8418
59.7918
59.7659
59.7441
59.7227
59.7127
59.7263
59.7366
59.7525
59.7458
59.7145
59.6726
59.6436
59.6202
59.6033
59.5849
59.5660
59.5182
59.4480
59.3952
59.3658
59.3464
59.3332
59.3638
59.4252
59.4776
59.5015
59.5087
59.5199
59.5174
59.5095
59.5200
59.5321
59.5290
59.5017
59.4887
59.4933
59.5021
59.5186
59.5485
59.6017
59.6594
59.7181
59.7539
59.7632
59.7768
59.8080
59.8363
59.8625
59.8848
59.8962
59.8726
59.8434
59.8367
59.8446
59.8448
59.8602
59.9153
59.9784
60.148
60.240
60.287
60.262
59.9982
59.9771
59.9652
59.9399
59.8879
59.8289
59.7944
59.7666
59.7419
59.7270
59.7383
59.7555
59.7727
59.7729
59.7469
59.7120
59.6870
59.6664
59.6472
59.6274
59.6081
59.5609
59.4891
59.4362
59.4066
59.3831
59.3645
59.3942
59.4469
59.4971
59.5080
59.5093
59.5165
59.5114
59.5048
59.5166
59.5297
59.5308
59.5066
59.4951
59.5030
59.5147
59.5344
59.5716
59.6272
59.6883
59.7466
59.7790
59.7885
59.8022
59.8301
59.8541
59.8775
59.8953
59.9066
59.8764
59.8460
59.8367
59.8414
59.8400
59.8610
59.9163
59.9804
60.188
60.345
60.396
60.400
60.177
60.9
59.9949
59.9766
59.9279
59.8735
59.8391
59.8135
59.7853
59.7679
59.7734
59.7802
59.7879
59.7793
59.7483
59.7075
59.6776
59.6558
59.6390
59.6196
59.6039
59.5581
59.4833
59.4307
59.4007
59.3797
59.3626
59.3911
59.4503
59.5014
59.5206
59.5237
59.5319
59.5285
59.5207
59.5300
59.5452
59.5441
59.5154
59.4984
59.5030
59.5123
59.5276
59.5629
59.6224
59.6841
59.7469
59.7828
59.7946
59.8112
59.8428
59.8729
59.9000
59.9211
59.9388
59.9170
59.8923
59.8910
59.8976
59.9008
59.9214
59.9776
60.425
60.757
60.862
60.908
60.804
60.551
60.351
60.254
60.25
59.9539
59.9034
59.8803
59.8631
59.8455
59.8377
59.8535
59.8651
59.8810
59.8765
59.8462
59.8081
59.7798
59.7559
59.7350
59.7141
59.6947
59.6426
59.5708
59.5194
59.4931
59.4702
59.4567
59.4888
59.5438
59.5931
59.6024
59.6042
59.6120
59.6108
59.6071
59.6255
59.6391
59.6407
59.6157
59.6084
59.6169
59.6313
59.6556
59.6970
59.7512
59.8096
59.8612
59.8856
59.8889
59.9028
59.9239
59.9494
59.9696
59.9869
59.9925
59.9624
59.9391
59.9397
59.9529
59.9540
59.9823
60.426
60.1052
60.1328
60.1374
60.1410
60.1322
60.1048
60.894
60.798
60.537
59.9984
59.9480
59.9180
59.8940
59.8680
59.8553
59.8612
59.8694
59.8815
59.8692
59.8342
59.7954
59.7671
59.7471
59.7309
59.7102
59.6946
59.6420
59.5775
59.5307
59.5060
59.4836
59.4757
59.5067
59.5595
59.5953
59.5995
59.5951
59.5987
59.5857
59.5796
59.5873
59.5946
59.5858
59.5588
59.5545
59.5622
59.5710
59.5929
59.6361
59.6918
59.7539
59.8053
59.8343
59.8405
59.8564
59.8832
59.9123
59.9350
59.9549
59.9571
59.9261
59.9031
59.9020
59.9072
59.9061
59.9374
59.9965
60.558
60.806
60.911
60.977
60.916
60.692
60.614
60.522
60.300
59.9801
59.9346
59.9082
59.8870
59.8682
59.8578
59.8706
59.8877
59.8985
59.8875
59.8506
59.8138
59.7865
59.7688
59.7507
59.7267
59.7064
59.6476
59.5793
59.5383
59.5108
59.4907
59.4872
59.5283
59.5912
59.6275
59.6367
59.6423
59.6498
59.6457
59.6466
59.6643
59.6769
59.6660
59.6376
59.6340
59.6459
59.6595
59.6839
59.7326
59.7909
59.8531
59.9035
59.9284
59.9363
59.9566
59.9863
60.127
60.371
60.592
60.605
60.310
60.164
60.245
60.353
60.402
60.824
60.1500
60.2075
60.2277
60.2296
60.2301
60.2138
60.1831
60.1686
60.1528
60.1179
60.596
60.157
59.9883
59.9658
59.9545
59.9566
59.9755
59.9939
60.74
59.9948
59.9545
59.9269
59.9044
59.8865
59.8665
59.8503
59.8253
59.7623
59.6993
59.6596
59.6394
59.6164
59.6232
59.6687
59.7259
59.7535
59.7577
59.7582
59.7627
59.7501
59.7549
59.7716
59.7770
59.7625
59.7423
59.7512
59.7691
59.7867
59.8186
59.8766
59.9354
59.9997
60.428
60.607
60.711
60.935
60.1193
60.1439
60.1615
60.1769
60.1619
60.1262
60.1118
60.1188
60.1233
60.1341
60.1845
60.2504
60.3000
60.3155
60.3217
60.3225
60.3000
60.2765
60.2691
60.2497
60.2079
60.1472
60.1112
60.858
60.609
60.435
60.471
60.564
60.681
60.608
60.327
59.9871
59.9512
59.9276
59.9018
59.8804
59.8598
59.8176
59.7472
59.6902
59.6600
59.6431
59.6281
59.6546
59.7091
59.7616
59.7794
59.7777
59.7834
59.7781
59.7658
59.7713
59.7802
59.7754
59.7440
59.7221
59.7264
59.7341
59.7488
59.7793
59.8323
59.8895
59.9473
59.9830
59.9901
60.51
60.311
60.576
60.816
60.1016
60.1125
60.816
60.557
60.546
60.631
60.653
60.830
60.1415
60.2094
60.2430
60.2551
60.2569
60.2517
60.2275
60.2066
60.2002
60.1751
60.1265
60.753
60.500
60.324
60.131
60.38
60.190
60.359
60.503
60.479
60.165
59.9770
59.9489
59.9279
59.9093
59.8878
59.8651
59.8116
59.7402
59.6898
59.6610
59.6385
59.6228
59.6533
59.7100
59.7549
59.7692
59.7719
59.7780
59.7758
59.7705
59.7870
59.7986
59.7934
59.7654
59.7597
59.7685
59.7816
59.8033
59.8448
59.9006
59.9537
60.53
60.288
60.329
60.441
60.702
60.957
60.1187
60.1355
60.1364
60.1044
60.826
60.863
60.894
60.968
60.1297
60.1939
60.2567
60.2822
60.2909
60.2989
60.2914
60.2659
60.2550
60.2419
60.2157
60.1568
60.1098
60.806
60.486
60.253
60.203
60.303
60.392
60.467
60.297
59.9914
59.9559
59.9346
59.9180
59.9008
59.8873
59.8696
59.8119
59.7544
59.7191
59.6981
59.6771
59.6790
59.7177
59.7747
59.8029
59.8031
59.8049
59.8077
59.7977
59.7969
59.8145
59.8220
59.8075
59.7838
59.7841
59.7954
59.8093
59.8356
59.8864
59.9416
60.25
60.464
60.663
60.761
60.944
60.1210
60.1445
60.1647
60.1852
60.1691
60.1328
60.1187
60.1221
60.1209
60.1235
60.1666
60.2286
60.2782
60.2915
60.2903
60.2903
60.2733
60.2465
60.2411
60.2263
60.1921
60.1381
60.1013
60.771
60.509
60.308
60.329
60.450
60.568
60.612
60.392
59.9982
59.9656
59.9430
59.9232
59.8998
59.8771
59.8380
59.7613
59.6986
59.6571
59.6316
59.6100
59.6230
59.6755
59.7286
59.7523
59.7582
59.7685
59.7679
59.7587
59.7678
59.7799
59.7796
59.7554
59.7327
59.7349
59.7381
59.7485
59.7771
59.8276
59.8824
59.9412
59.9822
59.9945
60.48
60.261
60.496
60.722
60.878
60.1006
60.776
60.441
60.368
60.442
60.519
60.702
60.1265
60.1957
60.2375
60.2537
60.2576
60.2532
60.2292
60.2077
60.1954
60.1693
60.1183
60.608
60.248
59.9953
59.9696
59.9581
59.9719
59.9866
60.65
60.91
59.9840
59.9449
59.9198
59.8984
59.8801
59.8587
59.8423
59.7929
59.7207
59.6673
59.6361
59.6104
59.5926
59.6131
59.6662
59.7133
59.7241
59.7219
59.7263
59.7186
59.7050
59.7112
59.7224
59.7172
59.6893
59.6800
59.6892
59.7028
59.7285
59.7689
59.8276
59.8902
59.9509
59.9889
59.9995
60.92
60.317
60.498
60.656
60.798
60.826
60.475
60.161
60.126
60.173
60.159
60.429
60.1060
60.1726
60.2073
60.2223
60.2311
60.2237
60.1950
60.1766
60.1658
60.1423
60.878
60.366
60.96
59.9861
59.9640
59.9524
59.9671
59.9780
59.9878
59.9798
59.9416
59.9013
59.8727
59.8487
59.8247
59.8008
59.7789
59.7227
59.6575
59.6134
59.5916
59.5747
59.5758
59.6202
59.6797
59.7275
59.7391
59.7393
59.7443
59.7363
59.7257
59.7359
59.7391
59.7218
59.6885
59.6840
59.6920
59.7033
59.7276
59.7756
59.8309
59.8928
59.9444
59.9720
59.9839
60.59
60.382
60.644
60.864
60.1074
60.1055
60.724
60.521
60.594
60.635
60.668
60.1062
60.1697
60.2257
60.2499
60.2533
60.2558
60.2381
60.2075
60.1943
60.1759
60.1433
60.859
60.415
60.171
59.9957
59.9788
59.9791
59.9928
60.109
60.239
60.133
59.9743
59.9402
59.9148
59.8912
59.8684
59.8446
59.8132
59.7469
59.6785
59.6340
59.6101
59.5858
59.5880
59.6327
59.6938
59.7261
59.7315
59.7346
59.7382
59.7281
59.7265
59.7435
59.7485
59.7336
59.7085
59.7138
59.7301
59.7428
59.7697
59.8219
59.8825
59.9409
59.9808
59.9959
60.23
60.206
60.439
60.684
60.843
60.1022
60.879
60.540
60.390
60.468
60.528
60.616
60.1095
60.1797
60.2352
60.2512
60.2568
60.2594
60.2393
60.2150
60.2064
60.1890
60.1504
60.927
60.553
60.293
60.45
59.9851
59.9888
59.9981
60.114
60.147
59.9924
59.9510
59.9198
59.8978
59.8826
59.8638
59.8507
59.8206
59.7570
59.7055
59.6737
59.6561
59.6412
59.6611
59.7156
59.7743
59.7959
59.8015
59.8062
59.8017
59.7886
59.7918
59.8045
59.8036
59.7766
59.7559
59.7622
59.7724
59.7924
59.8235
59.8834
59.9470
60.82
60.512
60.666
60.829
60.1112
60.1401
60.1648
60.1813
60.1937
60.1657
60.1343
60.1272
60.1307
60.1309
60.1508
60.2055
60.2694
60.3087
60.3208
60.3246
60.3200
60.2988
60.2862
60.2813
60.2591
60.2133
60.1613
60.1331
60.1088
60.845
60.691
60.763
60.847
60.962
60.898
60.587
60.233
59.9956
59.9763
59.9562
59.9322
59.9085
59.8551
59.7829
59.7284
59.7008
59.6763
59.6619
59.6927
59.7498
59.7995
59.8137
59.8192
59.8273
59.8251
59.8217
59.8371
59.8480
59.8433
59.8138
59.8020
59.8040
59.8128
59.8289
59.8669
59.9162
59.9753
60.260
60.542
60.571
60.694
60.944
60.1191
60.1417
60.1642
60.1697
60.1413
60.1245
60.1276
60.1355
60.1409
60.1730
60.2370
60.2990
60.3249
60.3347
60.3393
60.3269
60.2967
60.2824
60.2681
60.2392
60.1822
60.1320
60.1046
60.793
60.584
60.525
60.655
60.785
60.912
60.806
60.444
60.115
59.9919
59.9720
59.9552
59.9362
59.9150
59.8540
59.7864
59.7439
59.7202
59.6983
59.6977
59.7387
59.7933
59.8223
59.8242
59.8204
59.8214
59.8056
59.8003
59.8116
59.8159
59.7981
59.7741
59.7753
59.7887
59.8039
59.8327
59.8865
59.9438
60.28
60.475
60.632
60.692
60.849
60.1080
60.1300
60.1413
60.1603
60.1416
60.1062
60.909
60.958
60.1009
60.1056
60.1481
60.2147
60.2634
60.2792
60.2822
60.2875
60.2712
60.2490
60.2425
60.2276
60.1958
60.1397
60.1037
60.774
60.525
60.339
60.316
60.390
60.475
60.469
60.212
59.9769
59.9435
59.9197
59.9001
59.8799
59.8644
59.8308
59.7660
59.7132
59.6830
59.6665
59.6504
59.6721
59.7297
59.7871
59.8114
59.8194
59.8290
59.8307
59.8212
59.8298
59.8430
59.8434
59.8196
59.8028
59.8077
59.8219
59.8385
59.8675
59.9226
59.9794
60.399
60.787
60.940
60.1100
60.1406
60.1737
60.2016
60.2248
60.2435
60.2195
60.1923
60.1854
60.1910
60.1896
60.2079
60.2603
60.3281
60.3620
60.3691
60.3718
60.3634
60.3348
60.3159
60.3057
60.2803
60.2271
60.1716
60.1395
60.1143
60.946
60.846
60.945
60.1099
60.1286
60.1237
60.945
60.605
60.364
60.144
59.9949
59.9744
59.9517
59.8956
59.8241
59.7678
59.7406
59.7224
59.7096
59.7396
59.7933
59.8343
59.8385
59.8358
59.8371
59.8281
59.8208
59.8383
59.8509
59.8479
59.8198
59.8140
59.8257
59.8387
59.8612
59.9000
59.9543
60.134
60.649
60.872
60.936
60.1065
60.1260
60.1477
60.1655
60.1824
60.1778
60.1468
60.1300
60.1335
60.1483
60.1546
60.1927
60.2602
60.3216
60.3506
60.3602
60.3653
60.3516
60.3241
60.3098
60.2955
60.2661
60.2109
60.1671
60.1390
60.1124
60.919
60.837
60.942
60.1015
60.1075
60.860
60.482
60.150
59.9939
59.9775
59.9611
59.9431
59.9230
59.8625
59.8004
59.7616
59.7393
59.7206
59.7252
59.7678
59.8267
59.8547
59.8614
59.8637
59.8658
59.8510
59.8518
59.8625
59.8654
59.8412
59.8144
59.8108
59.8179
59.8305
59.8588
59.9107
59.9684
60.289
60.729
60.904
60.1010
60.1217
60.1499
60.1743
60.1949
60.2151
60.1974
60.1606
60.1447
60.1485
60.1485
60.1497
60.1957
60.2545
60.2957
60.3058
60.3038
60.3033
60.2844
60.2604
60.2498
60.2349
60.1947
60.1403
60.1079
60.831
60.593
60.397
60.432
60.495
60.631
60.621
60.375
59.9967
59.9638
59.9429
59.9218
59.8979
59.8797
59.8393
59.7709
59.7120
59.6777
59.6543
59.6357
59.6535
59.7074
59.7617
59.7817
59.7838
59.7912
59.7887
59.7831
59.7970
59.8164
59.8205
59.7959
59.7813
59.7894
59.7999
59.8140
59.8468
59.8992
59.9540
60.86
60.435
60.516
60.618
60.876
60.1120
60.1364
60.1568
60.1689
60.1446
60.1205
60.1220
60.1317
60.1392
60.1638
60.2277
60.2912
60.3234
60.3321
60.3367
60.3297
60.2993
60.2816
60.2712
60.2462
60.1951
60.1394
60.1122
60.885
60.658
60.522
60.595
60.712
60.840
60.773
60.482
60.113
59.9871
59.9679
59.9509
59.9351
59.9155
59.8605
59.7938
59.7433
59.7139
59.6918
59.6803
59.7138
59.7695
59.8069
59.8121
59.8111
59.8159
59.8063
59.7944
59.8085
59.8144
59.8075
59.7770
59.7711
59.7810
59.7935
59.8141
59.8583
59.9191
59.9837
60.372
60.630
60.717
60.876
60.1091
60.1323
60.1508
60.1691
60.1651
60.1223
60.954
60.934
60.931
60.921
60.1250
60.1847
60.2425
60.2675
60.2754
60.2808
60.2707
60.2477
60.2396
60.2286
60.1956
60.1378
60.909
60.604
60.311
60.50
59.9937
60.42
60.148
60.228
60.36
59.9661
59.9345
59.9072
59.8851
59.8641
59.8407
59.8122
59.7478
59.6816
59.6410
59.6202
59.6013
59.6061
59.6536
59.7181
59.7505
59.7579
59.7665
59.7763
59.7697
59.7727
59.7885
59.7927
59.7733
59.7497
59.7505
59.7560
59.7684
59.7885
59.8384
59.8904
59.9480
59.9941
60.171
60.287
60.549
60.880
60.1200
60.1422
60.1694
60.1558
60.1276
60.1139
60.1170
60.1188
60.1245
60.1686
60.2324
60.2812
60.2982
60.2993
60.3007
60.2826
60.2587
60.2505
60.2324
60.1919
60.1338
60.969
60.694
60.422
60.257
60.286
60.420
60.620
60.694
60.482
60.107
59.9863
59.9695
59.9560
59.9387
59.9210
59.8831
59.8107
59.7521
59.7159
59.6862
59.6626
59.6769
59.7252
59.7802
59.8010
59.8015
59.8075
59.8088
59.7993
59.8124
59.8280
59.8322
59.8078
59.7959
59.8025
59.8142
59.8341
59.8696
59.9295
59.9876
60.460
60.809
60.911
60.1009
60.1238
60.1468
60.1656
60.1827
60.1937
60.1660
60.1369
60.1319
60.1423
60.1462
60.1694
60.2252
60.2901
60.3275
60.3390
60.3438
60.3396
60.3162
60.2972
60.2889
60.2654
60.2182
60.1617
60.1319
60.1038
60.769
60.592
60.661
60.732
60.848
60.757
60.420
60.46
59.9790
59.9542
59.9366
59.9186
59.9048
59.8529
59.7876
59.7394
59.7154
59.6967
59.6867
59.7193
59.7766
59.8192
59.8252
59.8236
59.8282
59.8180
59.8079
59.8208
59.8249
59.8161
59.7887
59.7801
59.7852
59.7919
59.8127
59.8540
59.9064
59.9665
60.178
60.455
60.548
60.748
60.1029
60.1285
60.1507
60.1699
60.1713
60.1398
60.1182
60.1187
60.1227
60.1216
60.1492
60.2063
60.2619
60.2805
60.2825
60.2825
60.2675
60.2388
60.2267
60.2154
60.1885
60.1351
60.900
60.699
60.468
60.291
60.254
60.413
60.587
60.686
60.570
60.208
59.9904
59.9663
59.9469
59.9299
59.9093
59.8793
59.8143
59.7471
59.7065
59.6843
59.6632
59.6644
59.7115
59.7763
59.8129
59.8242
59.8357
59.8445
59.8406
59.8461
59.8671
59.8767
59.8630
59.8405
59.8407
59.8509
59.8621
59.8875
59.9362
59.9923
60.529
60.963
60.1150
60.1222
60.1444
60.1679
60.1914
60.2117
60.2338
60.2170
60.1835
60.1715
60.1769
60.1825
60.1912
60.2375
60.3046
60.3551
60.3698
60.3724
60.3718
60.3506
60.3257
60.3149
60.2930
60.2501
60.1905
60.1492
60.1196
60.902
60.688
60.656
60.769
60.871
60.868
60.621
60.231
59.9956
59.9734
59.9553
59.9315
59.9153
59.8735
59.8052
59.7485
59.7151
59.6913
59.6750
59.6956
59.7467
59.7965
59.8111
59.8106
59.8118
59.8071
59.7955
59.8007
59.8129
59.8101
59.7782
59.7625
59.7677
59.7819
59.8027
59.8378
59.8951
59.9547
60.115
60.472
60.561
60.701
60.932
60.1184
60.1382
60.1572
60.1675
60.1350
60.1026
60.929
60.971
60.960
60.1104
60.1648
60.2252
60.2573
60.2682
60.2724
60.2724
60.2492
60.2326
60.2267
60.2046
60.1533
60.993
60.667
60.382
60.134
59.9948
60.42
60.156
60.213
60.120
59.9781
59.9373
59.9074
59.8802
59.8593
59.8352
59.8148
59.7614
59.6877
59.6305
59.5975
59.5745
59.5578
59.5895
59.6461
59.6932
59.7079
59.7127
59.7226
59.7171
59.7124
59.7224
59.7291
59.7176
59.6827
59.6649
59.6607
59.6635
59.6777
59.7135
59.7665
59.8243
59.8764
59.9042
59.9127
59.9309
59.9603
59.9862
60.69
60.259
60.244
59.9905
59.9609
59.9571
59.9602
59.9561
59.9852
60.439
60.1044
60.1342
60.1387
60.1383
60.1244
60.957
60.785
60.643
60.333
59.9726
59.9172
59.8831
59.8558
59.8282
59.8172
59.8292
59.8439
59.8579
59.8510
59.8193
59.7887
59.7698
59.7529
59.7388
59.7195
59.6994
59.6400
59.5683
59.5163
59.4847
59.4583
59.4457
59.4813
59.5393
59.5813
59.5875
59.5897
59.5999
59.5966
59.5942
59.6113
59.6227
59.6151
59.5914
59.5865
59.5954
59.6075
59.6323
59.6786
59.7351
59.7980
59.8509
59.8787
59.8858
59.9011
59.9280
59.9549
59.9731
59.9905
59.9871
59.9542
59.9329
59.9370
59.9410
59.9440
59.9810
60.455
60.1064
60.1344
60.1495
60.1600
60.1514
60.1298
60.1257
60.1194
60.980
60.442
60.4
59.9719
59.9435
59.9178
59.9070
59.9138
59.9275
59.9345
59.9237
59.8890
59.8592
59.8401
59.8234
59.8104
59.7952
59.7749
59.7173
59.6541
59.6165
59.5957
59.5739
59.5781
59.6240
59.6859
59.7260
59.7335
59.7403
59.7509
59.7457
59.7486
59.7678
59.7716
59.7547
59.7275
59.7254
59.7340
59.7473
59.7703
59.8211
59.8778
59.9395
59.9906
60.119
60.231
60.487
60.788
60.1098
60.1353
60.1555
60.1439
60.1089
60.887
60.911
60.943
60.985
60.1391
60.1992
60.2507
60.2655
60.2693
60.2693
60.2503
60.2235
60.2139
60.1940
60.1547
60.912
60.502
60.246
59.9990
59.9801
59.9794
59.9927
60.74
60.97
59.9872
59.9470
59.9145
59.8905
59.8713
59.8491
59.8263
59.7881
59.7162
59.6501
59.6102
59.5835
59.5631
59.5779
59.6287
59.6831
59.7098
59.7188
59.7302
59.7298
59.7229
59.7300
59.7455
59.7495
59.7269
59.7053
59.7069
59.7118
59.7262
59.7522
59.8052
59.8626
59.9217
59.9611
59.9758
59.9876
60.110
60.383
60.654
60.863
60.1032
60.799
60.435
60.369
60.413
60.443
60.588
60.1150
60.1821
60.2288
60.2450
60.2490
60.2514
60.2323
60.2128
60.2052
60.1837
60.1361
60.736
60.367
60.31
59.9760
59.9587
59.9635
59.9740
59.9920
59.9967
59.9743
59.9371
59.9075
59.8875
59.8730
59.8545
59.8407
59.8000
59.7329
59.6792
59.6471
59.6262
59.6072
59.6346
59.6883
59.7338
59.7462
59.7477
59.7500
59.7463
59.7346
59.7433
59.7577
59.7532
59.7250
59.7108
59.7226
59.7361
59.7569
59.7946
59.8532
59.9170
59.9762
60.160
60.270
60.472
60.764
60.1085
60.1336
60.1553
60.1646
60.1333
60.1074
60.1001
60.1057
60.1036
60.1252
60.1831
60.2469
60.2821
60.2939
60.3048
60.3030
60.2842
60.2739
60.2688
60.2493
60.2019
60.1546
60.1282
60.1029
60.809
60.678
60.768
60.895
60.1040
60.961
60.657
60.310
60.84
59.9913
59.9711
59.9533
59.9357
59.8802
59.8101
59.7634
59.7383
59.7177
59.7082
59.7495
59.8126
59.8548
59.8685
59.8725
59.8840
59.8789
59.8783
59.8967
59.9073
59.8939
59.8663
59.8590
59.8635
59.8740
59.8948
59.9430
59.9955
60.542
60.1020
60.1270
60.1400
60.1624
60.1904
60.2221
60.2495
60.2764
60.2736
60.2404
60.2252
60.2332
60.2402
60.2438
60.2871
60.3506
60.4007
60.4155
60.4177
60.4195
60.4013
60.3744
60.3639
60.3483
60.3148
60.2563
60.2151
60.1930
60.1685
60.1492
60.1511
60.1664
60.1841
60.1929
60.1738
60.1374
60.1084
60.866
60.689
60.493
60.301
59.9970
59.9279
59.8675
59.8340
59.8109
59.7881
59.8016
59.8494
59.9048
59.9251
59.9301
59.9331
59.9310
59.9194
59.9275
59.9435
59.9475
59.9270
59.9129
59.9217
59.9365
59.9542
59.9903
60.451
60.1080
60.1670
60.2030
60.2145
60.2281
60.2522
60.2764
60.2988
60.3139
60.3274
60.3020
60.2720
60.2687
60.2757
60.2819
60.3049
60.3709
60.4381
60.4801
60.4953
60.5060
60.5032
60.4811
60.4661
60.4575
60.4376
60.3873
60.3370
60.3102
60.2874
60.2626
60.2483
60.2545
60.2669
60.2740
60.2650
60.2285
60.1898
60.1640
60.1423
60.1268
60.1089
60.914
60.342
59.9674
59.9269
59.9030
59.8820
59.8764
59.9127
59.9698
60.125
60.211
60.210
60.279
60.203
60.179
60.299
60.374
60.241
59.9933
59.9890
59.9940
60.2
60.225
60.690
60.1215
60.1809
60.2275
60.2543
60.2678
60.2892
60.3150
60.3428
60.3620
60.3816
60.3752
60.3429
60.3239
60.3264
60.3276
60.3280
60.3650
60.4276
60.4822
60.4960
60.4991
60.4986
60.4810
60.4523
60.4422
60.4264
60.3908
60.3350
60.2948
60.2684
60.2392
60.2199
60.2196
60.2322
60.2467
60.2519
60.2312
60.1932
60.1619
60.1402
60.1207
60.956
60.722
60.287
59.9525
59.8870
59.8497
59.8235
59.7963
59.8157
59.8670
59.9209
59.9389
59.9441
59.9510
59.9479
59.9376
59.9461
59.9597
59.9588
59.9329
59.9140
59.9188
59.9268
59.9423
59.9760
60.308
60.867
60.1439
60.1767
60.1839
60.1928
60.2126
60.2357
60.2542
60.2713
60.2787
60.2516
60.2226
60.2198
60.2300
60.2358
60.2629
60.3259
60.3938
60.4299
60.4405
60.4465
60.4377
60.4101
60.3903
60.3745
60.3468
60.2904
60.2298
60.1938
60.1683
60.1404
60.1234
60.1349
60.1441
60.1607
60.1487
60.1113
60.754
60.504
60.297
60.119
59.9933
59.9762
59.9213
59.8492
59.8018
59.7748
59.7532
59.7428
59.7748
59.8313
59.8691
59.8770
59.8769
59.8775
59.8676
59.8597
59.8731
59.8814
59.8717
59.8456
59.8389
59.8472
59.8602
59.8837
59.9274
59.9837
60.433
60.937
60.1191
60.1240
60.1442
60.1685
60.1940
60.2114
60.2288
60.2238
60.1881
60.1646
60.1633
60.1654
60.1629
60.1967
60.2577
60.3091
60.3270
60.3323
60.3361
60.3229
60.2958
60.2866
60.2749
60.2454
60.1924
60.1497
60.1261
60.1016
60.771
60.740
60.835
60.977
60.1025
60.822
60.391
60.21
59.9780
59.9550
59.9341
59.9120
59.8786
59.8100
59.7448
59.7040
59.6824
59.6600
59.6703
59.7187
59.7794
59.8122
59.8194
59.8257
59.8317
59.8229
59.8259
59.8394
59.8439
59.8181
59.7937
59.7977
59.8042
59.8180
59.8424
59.8931
59.9469
60.21
60.438
60.552
60.676
60.923
60.1184
60.1482
60.1694
60.1879
60.1720
60.1421
60.1325
60.1403
60.1417
60.1526
60.2041
60.2720
60.3175
60.3323
60.3350
60.3315
60.3061
60.2805
60.2685
60.2448
60.1973
60.1364
60.998
60.722
60.456
60.276
60.318
60.441
60.591
60.585
60.336
59.9992
59.9696
59.9466
59.9264
59.9037
59.8857
59.8386
59.7627
59.7016
59.6649
59.6375
59.6080
59.6264
59.6739
59.7170
59.7280
59.7266
59.7296
59.7259
59.7134
59.7191
59.7307
59.7253
59.6938
59.6770
59.6818
59.6892
59.7048
59.7366
59.7902
59.8446
59.9019
59.9307
59.9374
59.9446
59.9647
59.9879
60.68
60.181
60.208
59.9899
59.9566
59.9465
59.9498
59.9486
59.9697
60.240
60.867
60.1188
60.1270
60.1289
60.1221
60.981
60.770
60.701
60.486
59.9993
59.9453
59.9137
59.8846
59.8589
59.8422
59.8484
59.8597
59.8691
59.8602
59.8264
59.7841
59.7557
59.7310
59.7146
59.6952
59.6787
59.6343
59.5675
59.5191
59.4932
59.4762
59.4701
59.5032
59.5648
59.6130
59.6238
59.6265
59.6335
59.6284
59.6161
59.6272
59.6336
59.6323
59.6012
59.5903
59.5958
59.6039
59.6246
59.6633
59.7209
59.7810
59.8379
59.8722
59.8809
59.9008
59.9287
59.9590
59.9862
60.91
60.158
59.9852
59.9587
59.9589
59.9647
59.9643
59.9901
60.466
60.1104
60.1410
60.1495
60.1556
60.1475
60.1214
60.1056
60.949
60.663
60.152
59.9685
59.9392
59.9150
59.8951
59.8824
59.8993
59.9152
59.9309
59.9276
59.8971
59.8637
59.8436
59.8226
59.8031
59.7793
59.7536
59.6917
59.6158
59.5631
59.5364
59.5138
59.5054
59.5390
59.5978
59.6485
59.6582
59.6653
59.6761
59.6743
59.6715
59.6907
59.6998
59.6918
59.6621
59.6535
59.6587
59.6698
59.6915
59.7358
59.7901
59.8469
59.8986
59.9209
59.9281
59.9435
59.9637
59.9880
60.54
60.219
60.165
59.9798
59.9526
59.9544
59.9611
59.9611
59.9989
60.639
60.1239
60.1542
60.1611
60.1686
60.1556
60.1244
60.1119
60.949
60.635
60.3
59.9484
59.9149
59.8810
59.8543
59.8421
59.8507
59.8593
59.8673
59.8534
59.8199
59.7895
59.7649
59.7500
59.7351
59.7212
59.7009
59.6392
59.5721
59.5324
59.5081
59.4871
59.4850
59.5216
59.5787
59.6156
59.6180
59.6177
59.6235
59.6171
59.6160
59.6328
59.6391
59.6254
59.5982
59.5950
59.6056
59.6169
59.6423
59.6916
59.7524
59.8121
59.8609
59.8904
59.9033
59.9260
59.9524
59.9824
60.43
60.245
60.191
59.9847
59.9634
59.9640
59.9670
59.9665
60.39
60.685
60.1260
60.1492
60.1570
60.1662
60.1565
60.1386
60.1340
60.1215
60.925
60.367
59.9914
59.9636
59.9376
59.9145
59.9139
59.9261
59.9421
59.9537
59.9404
59.9027
59.8681
59.8481
59.8268
59.8041
59.7821
59.7489
59.6776
59.6076
59.5639
59.5378
59.5150
59.5214
59.5701
59.6328
59.6701
59.6840
59.6953
59.7050
59.7033
59.7097
59.7244
59.7264
59.7051
59.6745
59.6655
59.6687
59.6770
59.6993
59.7472
59.8020
59.8655
59.9120
59.9342
59.9497
59.9744
60.58
60.358
60.573
60.789
60.611
60.239
60.67
60.121
60.151
60.261
60.753
60.1451
60.1989
60.2171
60.2257
60.2310
60.2137
60.1887
60.1767
60.1573
60.1128
60.497
60.35
59.9760
59.9474
59.9321
59.9335
59.9480
59.9684
59.9808
59.9648
59.9352
59.9113
59.8926
59.8777
59.8624
59.8426
59.8035
59.7286
59.6679
59.6292
59.6034
59.5797
59.5915
59.6379
59.6900
59.7105
59.7104
59.7133
59.7125
59.7025
59.7093
59.7233
59.7212
59.6938
59.6736
59.6784
59.6899
59.7073
59.7378
59.7969
59.8553
59.9181
59.9576
59.9711
59.9829
60.86
60.321
60.528
60.674
60.809
60.505
60.148
60.11
60.36
60.43
60.153
60.632
60.1268
60.1674
60.1816
60.1896
60.1923
60.1733
60.1580
60.1537
60.1328
60.889
60.335
60.10
59.9714
59.9435
59.9257
59.9313
59.9430
59.9530
59.9468
59.9195
59.8798
59.8488
59.8276
59.8113
59.7969
59.7808
59.7389
59.6709
59.6186
59.5889
59.5664
59.5533
59.5863
59.6461
59.7006
59.7200
59.7274
59.7352
59.7332
59.7248
59.7330
59.7441
59.7377
59.7070
59.6890
59.6906
59.6973
59.7151
59.7505
59.8088
59.8695
59.9300
59.9709
59.9830
60.54
60.358
60.698
60.964
60.1184
60.1288
60.999
60.726
60.665
60.716
60.685
60.900
60.1451
60.2088
60.2407
60.2561
60.2648
60.2609
60.2378
60.2241
60.2174
60.1952
60.1416
60.911
60.616
60.348
60.98
59.9974
60.157
60.334
60.493
60.452
60.165
59.9843
59.9639
59.9465
59.9286
59.9091
59.8860
59.8257
59.7514
59.7018
59.6725
59.6449
59.6366
59.6710
59.7307
59.7714
59.7832
59.7860
59.7952
59.7928
59.7904
59.8074
59.8171
59.8074
59.7811
59.7757
59.7863
59.8013
59.8229
59.8687
59.9249
59.9869
60.364
60.597
60.687
60.871
60.1128
60.1399
60.1559
60.1761
60.1689
60.1335
60.1181
60.1222
60.1291
60.1339
60.1745
60.2433
60.3025
60.3287
60.3389
60.3406
60.3285
60.3039
60.2941
60.2809
60.2444
60.1816
60.1375
60.1069
60.793
60.559
60.514
60.600
60.724
60.776
60.585
60.192
59.9872
59.9629
59.9440
59.9236
59.9011
59.8709
59.8027
59.7410
59.7004
59.6752
59.6543
59.6640
59.7109
59.7666
59.7928
59.7933
59.7933
59.7907
59.7760
59.7746
59.7891
59.7900
59.7671
59.7412
59.7370
59.7436
59.7592
59.7880
59.8420
59.8989
59.9617
60.65
60.244
60.380
60.665
60.949
60.1203
60.1398
60.1581
60.1395
60.1018
60.869
60.884
60.892
60.941
60.1396
60.2006
60.2482
60.2631
60.2649
60.2660
60.2485
60.2283
60.2205
60.2047
60.1648
60.1102
60.768
60.525
60.290
60.121
60.168
60.283
60.412
60.455
60.211
59.9785
59.9443
59.9189
59.8973
59.8759
59.8546
59.8114
59.7355
59.6750
59.6418
59.6184
59.6012
59.6263
59.6832
59.7393
59.7641
59.7729
59.7892
59.7940
59.7860
59.7970
59.8170
59.8154
59.7896
59.7712
59.7700
59.7790
59.7933
59.8243
59.8757
59.9315
59.9948
60.333
60.441
60.576
60.858
60.1151
60.1428
60.1658
60.1797
60.1513
60.1255
60.1250
60.1345
60.1379
60.1603
60.2194
60.2869
60.3277
60.3358
60.3424
60.3356
60.3079
60.2880
60.2765
60.2494
60.1937
60.1379
60.1065
60.812
60.579
60.503
60.677
60.864
60.1039
60.976
60.673
60.323
60.112
59.9871
59.9716
59.9511
59.9321
59.8761
59.8041
59.7578
59.7310
59.7091
59.6969

END